Time,AccX,AccY,AccZ,GyroX,GyroY,GyroZ,Capacitance

7266,-0.91,-0.28,0.04,-0.1,0.56,1.72,468

7286,-0.91,-0.28,0.04,-1.64,0.38,0.85,466

7306,-0.9,-0.3,0.04,-1.87,0.5,4.85,466

7326,-0.91,-0.31,0.03,-0.59,0.33,-7.58,466

7346,-0.91,-0.28,0.03,0.4,0.39,4.11,466

7366,-0.91,-0.29,0.05,0.61,0.1,-6.13,466

7387,-0.91,-0.3,0.05,0.17,0.13,-2.84,466

7406,-0.91,-0.28,0.04,0.4,0.07,-3.57,466

7427,-0.9,-0.31,0.04,-0.06,0.24,7.44,466

7446,-0.9,-0.33,0.03,2.6,0.85,-0.19,466

7467,-0.91,-0.28,0.04,1.93,-0.4,-8.49,466

7486,-0.9,-0.25,0.05,-2.56,-1.59,3.21,466

7506,-0.91,-0.27,0.04,-5.02,-1.23,-3.78,466

7526,-0.91,-0.26,0.04,-8.48,-3.12,4.53,466

7546,-0.92,-0.33,0.02,-8.16,-2.26,-6.97,466

7566,-0.91,-0.31,0.02,-2.07,-0.08,-1.79,466

7586,-0.93,-0.27,0.04,2.34,-6.04,-7.92,466

7606,-0.92,-0.19,0.07,2.26,0.47,-3.45,466

7626,-0.9,-0.24,0.07,1.74,1.78,-5.1,467

7646,-0.91,-0.35,0.04,10.45,5.22,-16.74,467

7666,-0.95,-0.24,0.04,15.0,5.74,-5.41,467

7686,-0.93,-0.17,0.05,8.51,4.39,-13.13,467

7706,-0.94,-0.22,0.03,4.86,5.57,-18.85,467

7727,-0.94,-0.22,0.03,5.55,5.72,-9.52,468

7746,-0.92,-0.2,0.03,7.15,7.19,-15.26,468

7767,-0.95,-0.17,0.06,5.74,8.04,-26.94,468

7786,-0.98,-0.17,0.05,7.21,11.69,-23.79,469

7806,-1.0,-0.07,0.08,8.54,12.16,-25.27,469

7826,-1.02,-0.04,0.12,18.34,19.14,-37.63,470

7846,-1.09,0.16,0.24,38.11,29.34,-46.94,472

7866,-1.08,0.21,0.28,26.69,28.48,-59.21,475

7886,-1.1,-0.13,0.1,-18.97,15.66,-64.09,479

7906,-0.96,-0.6,-0.04,-55.29,3.71,-50.31,477

7926,-0.7,-1.11,-0.01,-30.79,-4.52,-35.9,476

7946,-0.62,-0.87,0.17,14.28,-30.02,48.18,475

7966,-0.91,-0.06,0.2,4.14,-43.78,95.51,476

7986,-1.13,-0.04,0.2,-23.39,-52.14,89.97,478

8006,-1.02,-0.43,0.15,-20.48,-62.26,75.0,477

8027,-0.82,-0.53,0.22,11.39,-54.71,73.68,476

8046,-0.78,-0.32,0.27,39.42,-42.66,93.81,477

8067,-0.88,-0.03,0.2,41.48,-32.8,94.95,477

8086,-1.01,-0.02,0.06,16.55,-43.03,86.92,476

8107,-0.94,-0.12,0.08,-2.82,-47.52,75.8,474

8126,-0.75,-0.29,0.09,-4.65,-42.23,64.56,474

8146,-0.76,-0.37,0.08,15.5,-26.19,58.42,474

8166,-0.89,-0.22,0.06,32.77,-16.45,59.28,474

8186,-0.91,-0.18,0.09,33.44,-14.17,42.3,474

8206,-0.8,-0.18,0.08,37.0,-8.31,41.6,474

8226,-0.8,-0.22,0.08,39.5,-0.0,32.76,474

8246,-0.85,-0.25,0.11,45.73,7.17,30.36,474

8266,-0.85,-0.13,0.07,44.17,11.61,18.96,474

8286,-0.98,-0.02,0.18,27.06,12.62,15.52,474

8306,-0.92,0.1,0.12,-1.84,8.38,0.66,475

8326,-0.98,0.03,0.18,-30.76,5.93,-15.74,475

8346,-0.88,-0.09,0.14,-59.34,-3.47,-33.17,474

8367,-0.74,-0.09,0.05,-77.89,6.3,-44.98,475

8386,-1.16,-0.16,0.25,-81.28,7.74,-34.26,475

8407,-1.54,-0.09,0.45,-61.64,-5.52,-1.83,476

8426,-0.83,-0.09,0.1,-51.9,2.59,-34.22,476

8446,-1.03,-0.06,-0.08,-87.0,6.33,-46.76,474

8466,-0.71,-0.36,-0.12,-86.65,8.68,-38.27,472

8486,-0.69,-0.76,0.07,-35.92,33.81,-40.01,472

8506,-0.92,-0.44,0.28,-3.19,34.59,-25.52,472

8526,-0.96,-0.13,0.09,-10.47,35.89,-25.66,475

8546,-0.9,-0.33,-0.08,-23.03,29.35,-29.78,473

8566,-0.93,-0.38,-0.08,-7.37,32.58,-13.22,472

8586,-0.96,-0.19,0.01,2.92,32.19,-28.73,471

8606,-0.96,-0.07,0.01,-6.85,27.31,-28.21,472

8626,-0.93,-0.14,0.03,-16.22,25.13,-21.54,473

8646,-0.88,-0.21,0.05,-14.12,28.71,-34.06,473

8667,-0.94,-0.18,0.01,-13.35,28.79,-31.61,472

8686,-0.88,-0.24,-0.02,-16.58,28.38,-37.12,472

8707,-0.89,-0.37,-0.07,-18.7,24.48,-26.99,472

8726,-0.84,-0.46,-0.05,-14.16,23.78,-37.73,472

8747,-0.87,-0.39,-0.0,-1.08,27.71,-28.32,472

8766,-0.92,-0.3,-0.04,-1.2,25.25,-25.01,473

8786,-0.87,-0.34,0.01,-3.08,23.08,-34.18,473

8806,-0.83,-0.33,0.02,3.58,29.58,-32.07,473

8826,-0.87,-0.33,0.0,14.72,34.94,-32.31,473

8846,-0.95,-0.39,-0.01,21.52,31.43,-32.47,474

8866,-0.84,-0.4,0.03,22.72,28.03,-47.86,473

8886,-0.86,-0.33,-0.13,24.42,39.46,-42.17,473

8906,-0.89,-0.28,-0.16,23.82,36.64,-32.36,473

8926,-0.87,-0.3,-0.02,25.35,35.63,-42.96,473

8946,-0.87,-0.32,0.05,36.52,45.98,-41.84,474

8966,-0.93,-0.19,0.02,41.93,49.89,-51.54,476

8986,-0.96,-0.23,0.04,56.97,60.3,-93.41,477

9007,-1.32,-0.22,0.18,87.65,83.26,-101.86,480

9026,-1.7,-0.35,0.17,104.68,91.83,-122.76,486

9047,-1.69,-0.29,0.39,125.29,77.95,-144.35,489

9066,-1.39,-0.07,0.44,114.6,74.88,-142.11,490

9086,-1.25,-0.21,0.03,58.71,57.49,-118.8,492

9106,-0.93,-0.27,-0.15,-11.77,29.4,-99.72,491

9126,-0.46,-0.46,-0.46,-88.88,-21.3,-84.3,489

9146,-0.3,-0.8,-0.5,-106.41,10.41,-90.5,488

9166,-0.52,-1.24,-0.31,-48.01,12.22,-56.52,490

9186,-0.49,-1.08,-0.15,21.44,-27.5,13.7,490

9206,-0.14,-0.72,-0.15,66.74,-36.1,58.21,490

9226,-0.28,-0.58,-0.21,56.02,-45.42,94.89,489

9246,-0.44,-0.65,-0.21,39.58,-70.45,141.57,489

9266,-0.54,-0.66,-0.14,21.56,-87.88,177.41,488

9286,-0.53,-0.71,-0.13,-4.97,-114.0,183.16,486

9307,-0.56,-0.71,-0.07,-6.13,-117.96,204.73,484

9326,-0.71,-0.67,-0.01,-19.06,-124.74,208.16,482

9347,-0.66,-0.59,0.06,-31.52,-125.38,218.01,480

9366,-0.58,-0.66,-0.01,-36.5,-116.63,215.34,476

9387,-0.84,-0.6,0.03,-11.42,-100.46,198.1,473

9406,-0.97,-0.5,0.28,16.03,-87.03,193.04,471

9426,-0.8,-0.26,-0.08,18.58,-77.47,171.8,471

9446,-1.11,-0.04,0.22,32.08,-36.98,103.01,470

9466,-0.84,0.15,0.22,21.56,-25.53,74.09,470

9486,-0.91,0.22,0.05,4.77,-4.65,16.94,470

9506,-0.91,0.21,0.11,-43.63,-9.47,-20.75,470

9526,-0.71,-0.04,-0.01,-78.99,0.03,-60.43,471

9546,-0.63,-0.57,-0.25,-84.29,24.47,-113.52,471

9566,-1.02,-0.78,0.15,-14.85,60.3,-55.7,470

9586,-1.39,-0.44,0.33,46.46,29.26,4.25,471

9606,-1.05,0.08,0.12,22.51,35.31,-44.03,476

9626,-1.03,-0.05,0.1,-68.84,14.21,-59.79,474

9647,-0.6,-0.55,-0.03,-79.08,20.59,-43.47,472

9666,-0.68,-0.83,-0.02,-8.27,38.51,-23.77,472

9687,-0.93,-0.4,0.17,26.61,45.58,-31.24,473

9706,-1.06,-0.04,0.06,12.84,41.4,-29.02,475

9726,-0.98,-0.04,-0.14,-23.49,26.27,-20.96,474

9746,-0.83,-0.34,-0.13,-32.1,27.4,-42.44,473

9766,-0.96,-0.4,-0.02,-15.32,30.32,-29.04,473

9786,-0.96,-0.27,-0.06,-11.63,23.38,-21.01,474

9806,-0.89,-0.32,-0.04,-20.03,21.57,-16.44,474

9826,-0.87,-0.43,-0.0,-26.48,17.83,-37.49,473

9846,-0.87,-0.43,-0.02,-23.43,18.27,-24.6,472

9866,-0.85,-0.4,-0.01,-17.2,17.45,-26.56,473

9886,-0.84,-0.4,0.05,-6.77,21.14,-23.62,474

9906,-0.9,-0.2,0.04,-2.29,23.14,-17.99,474

9926,-0.93,-0.08,-0.03,-7.4,25.03,-24.02,473

9947,-0.98,-0.22,-0.02,-15.03,21.45,-23.38,473

9966,-0.86,-0.35,0.0,-12.42,20.3,-29.23,473

9987,-0.83,-0.39,0.0,-3.84,26.39,-29.39,473

10006,-0.89,-0.29,-0.01,-6.45,25.55,-30.98,473

10027,-0.89,-0.3,-0.09,-5.8,27.67,-30.43,472

10046,-0.91,-0.25,-0.09,0.9,29.28,-33.61,472

10066,-0.93,-0.19,-0.04,7.38,31.9,-37.1,472

10086,-0.93,-0.2,-0.0,9.23,33.42,-50.36,473

10106,-0.89,-0.25,0.0,12.81,37.29,-43.91,473

10126,-0.8,-0.36,0.05,20.87,42.39,-74.89,475

10146,-0.82,-0.42,0.15,42.13,52.0,-83.8,477

10166,-1.04,-0.46,0.13,74.26,78.0,-106.75,480

10186,-1.58,-0.54,0.24,105.99,98.82,-118.52,485

10206,-2.0,-0.39,0.48,158.45,108.29,-132.99,489

10226,-1.78,0.04,0.46,161.61,81.87,-163.43,492

10246,-1.33,-0.02,0.18,91.62,66.06,-149.99,491

10266,-0.88,-0.38,-0.17,-9.93,28.47,-100.3,490

10287,-0.4,-0.55,-0.42,-85.8,0.54,-86.71,488

10306,-0.31,-0.74,-0.41,-107.57,4.36,-58.03,487

10327,-0.44,-1.05,-0.29,-67.93,-1.64,-28.94,488

10346,-0.34,-1.07,-0.17,1.71,-23.1,30.73,488

10366,-0.29,-0.74,-0.02,40.75,-39.15,91.88,489

10386,-0.16,-0.72,-0.26,50.46,-56.29,144.42,489

10406,-0.29,-0.67,-0.17,54.42,-55.93,179.4,488

10426,-0.43,-0.81,-0.18,56.46,-85.21,216.64,487

10446,-0.52,-0.74,-0.11,44.37,-104.43,232.58,486

10466,-0.79,-0.56,0.04,29.87,-116.05,247.8,485

10486,-0.88,-0.45,0.08,-20.55,-133.33,238.12,482

10506,-0.75,-0.49,0.1,-67.6,-143.06,233.36,478

10526,-0.87,-0.39,0.21,-83.8,-133.9,231.03,475

10546,-0.86,-0.57,-0.07,-64.73,-123.87,180.67,473

10566,-1.14,-0.46,0.2,-43.72,-102.02,144.99,471

10587,-0.68,-0.2,0.08,-29.48,-73.33,111.25,472

10606,-0.83,-0.13,0.02,-11.55,-29.58,45.08,472

10627,-0.74,0.03,0.05,-5.29,-12.84,-2.4,473

10646,-0.65,-0.1,-0.07,-12.58,15.61,-57.0,473

10667,-0.64,-0.33,-0.08,-36.47,21.17,-85.23,473

10686,-0.59,-0.63,0.0,-23.68,53.6,-87.05,471

10706,-1.53,-0.29,0.61,36.61,74.44,9.2,471

10726,-1.82,0.05,0.22,3.27,2.65,1.86,479

10746,-0.78,-0.08,-0.06,-48.99,34.19,-78.05,475

10766,-0.68,-0.58,-0.01,-64.81,33.86,-70.15,473

10786,-0.64,-0.61,-0.11,-7.23,36.99,-15.26,472

10806,-0.99,-0.2,0.13,12.57,40.39,-36.02,473

10826,-1.03,0.05,0.05,-37.25,30.33,-30.52,477

10846,-0.94,-0.17,-0.16,-62.3,25.09,-38.24,475

10866,-0.84,-0.49,-0.16,-38.26,34.33,-45.95,474

10886,-0.94,-0.54,-0.12,5.23,42.27,-34.38,474

10906,-0.94,-0.22,-0.02,2.61,26.47,-21.29,475

10927,-0.84,-0.29,0.04,-23.81,26.27,-26.61,476

10946,-0.85,-0.48,0.05,-25.72,26.82,-35.22,475

10967,-0.82,-0.51,0.0,-7.03,31.26,-34.71,474

10986,-0.89,-0.4,0.02,9.73,34.35,-40.3,474

11006,-0.9,-0.23,-0.01,6.03,30.27,-27.02,475

11026,-0.87,-0.17,-0.04,-5.71,28.93,-31.37,475

11046,-0.89,-0.26,-0.04,-12.41,26.54,-28.09,474

11066,-0.88,-0.34,0.04,-10.56,25.92,-34.03,474

11086,-0.84,-0.39,0.04,-1.34,28.65,-40.26,475

11106,-0.86,-0.32,-0.01,-1.93,27.96,-40.65,476

11126,-0.88,-0.36,-0.11,-3.58,30.29,-37.02,475

11146,-0.89,-0.4,-0.11,-1.87,29.38,-37.91,475

11166,-0.84,-0.44,-0.1,1.21,31.87,-36.23,475

11186,-0.9,-0.49,-0.09,6.94,34.97,-46.68,476

11206,-0.86,-0.51,-0.06,16.16,39.13,-52.69,476

11227,-0.87,-0.5,-0.06,31.85,50.96,-46.03,477

11246,-0.97,-0.42,0.06,47.1,57.22,-58.48,479

11267,-1.1,-0.37,0.15,70.68,68.91,-71.36,482

11286,-1.47,-0.52,0.57,112.68,84.27,-115.25,486

11307,-2.0,-0.34,0.65,181.87,111.57,-125.96,492

11326,-1.86,0.05,0.34,186.69,100.91,-165.67,494

11346,-1.29,0.18,-0.01,111.5,66.33,-146.38,494

11366,-0.79,-0.15,-0.33,-0.16,32.76,-100.69,490

11386,-0.4,-0.46,-0.54,-106.26,-22.4,-79.62,487

11406,-0.3,-0.86,-0.58,-106.59,16.15,-82.75,487

11426,-0.45,-1.2,-0.37,-47.46,3.02,-49.14,487

11446,-0.3,-1.0,-0.27,21.27,-12.22,15.79,489

11466,-0.19,-0.67,-0.02,56.54,-21.23,70.29,489

11486,-0.15,-0.67,-0.1,51.18,-50.98,129.52,488

11506,-0.15,-0.65,-0.19,53.7,-51.81,166.69,487

11526,-0.47,-0.61,-0.15,34.71,-61.38,207.22,487

11546,-0.59,-0.59,-0.07,-7.1,-95.32,228.3,486

11567,-0.61,-0.71,-0.08,-21.71,-117.44,228.3,485

11586,-0.78,-0.66,-0.0,-26.61,-129.3,248.82,483

11607,-0.86,-0.59,0.07,-57.2,-146.63,234.95,479

11626,-0.82,-0.57,0.18,-71.32,-149.94,227.92,476

11646,-0.91,-0.53,0.29,-48.55,-119.07,226.09,473

11666,-0.81,-0.48,0.09,-8.44,-95.2,184.54,472

11686,-1.03,-0.38,0.07,24.17,-59.7,141.3,470

11706,-0.83,0.1,0.19,22.89,-39.91,111.21,470

11726,-0.89,0.38,0.12,10.68,-12.16,48.48,470

11746,-0.83,0.31,0.05,-6.74,-3.87,-15.04,471

11766,-0.76,0.09,-0.08,-45.75,10.82,-75.58,471

11786,-0.83,-0.21,-0.2,-71.84,30.33,-110.2,471

11806,-0.88,-0.72,0.17,-37.74,42.51,-92.94,470

11826,-1.43,-0.47,0.55,17.81,45.6,0.57,471

11846,-1.22,0.21,0.23,-22.84,-0.97,-28.91,476

11867,-0.85,-0.18,-0.1,-111.66,9.51,-81.72,474

11886,-0.67,-0.74,-0.09,-102.77,23.6,-67.17,472

11907,-0.59,-0.98,-0.1,-4.53,37.11,-35.86,471

11926,-0.85,-0.46,0.13,40.83,52.32,-22.13,473

11947,-1.02,-0.09,0.22,15.87,48.27,-33.78,477

11966,-0.97,-0.14,0.02,-14.79,36.71,-36.21,475

11986,-0.88,-0.29,-0.18,-18.35,39.86,-32.52,474

12006,-0.94,-0.3,-0.13,0.0,41.17,-41.52,474

12026,-0.96,-0.28,-0.08,6.89,39.55,-35.43,474

12046,-0.91,-0.24,0.06,-6.58,31.29,-28.73,475

12066,-0.88,-0.4,0.01,-18.9,25.81,-44.05,475

12086,-0.84,-0.48,-0.11,-16.0,26.71,-31.0,474

12106,-0.86,-0.5,-0.09,-0.59,27.49,-33.43,474

12126,-0.87,-0.44,-0.03,13.15,29.19,-28.29,474

12146,-0.89,-0.31,0.01,14.14,28.74,-23.09,474

12166,-0.88,-0.25,-0.06,1.68,22.99,-33.64,474

12186,-0.86,-0.37,-0.08,-2.73,23.9,-31.21,473

12207,-0.88,-0.39,-0.03,3.42,24.12,-30.1,473

12226,-0.85,-0.33,0.03,11.18,29.32,-25.48,474

12247,-0.91,-0.21,0.01,13.12,30.62,-35.74,474

12266,-0.94,-0.17,0.01,8.95,29.2,-42.9,474

12286,-0.92,-0.22,-0.03,10.89,36.21,-42.77,474

12306,-0.92,-0.28,-0.08,14.25,36.99,-56.61,475

12326,-0.91,-0.42,-0.07,11.18,34.99,-64.34,476

12346,-0.9,-0.49,-0.04,13.06,36.85,-63.78,477

12366,-0.9,-0.45,0.1,26.57,44.88,-57.56,479

12386,-0.99,-0.38,0.1,46.58,57.69,-83.28,481

12406,-1.09,-0.28,0.17,61.79,66.35,-97.68,483

12426,-1.47,-0.16,0.33,85.44,83.29,-101.2,487

12446,-1.94,-0.37,0.48,113.12,91.77,-132.96,491

12466,-1.72,-0.25,0.32,107.35,67.32,-144.25,493

12486,-1.27,-0.11,-0.11,35.81,27.32,-118.91,492

12507,-0.76,-0.47,-0.48,-63.58,-18.16,-100.25,490

12526,-0.45,-0.74,-0.38,-111.97,-18.25,-85.44,489

12547,-0.3,-0.96,-0.64,-94.44,-20.26,-52.15,488

12566,-0.22,-1.05,-0.35,-40.81,-20.63,-21.85,488

12587,-0.09,-0.97,-0.22,26.42,-36.05,15.6,489

12606,-0.26,-0.69,-0.03,47.64,-48.33,89.54,489

12626,-0.18,-0.58,-0.17,41.68,-78.84,128.86,488

12646,-0.28,-0.57,-0.18,24.78,-80.49,171.56,487

12666,-0.43,-0.69,-0.2,20.02,-93.38,194.68,486

12686,-0.53,-0.68,-0.12,-1.86,-111.38,214.38,485

12706,-0.62,-0.72,-0.08,-25.22,-133.65,214.99,484

12726,-0.69,-0.7,0.01,-23.19,-134.75,228.93,482

12746,-0.73,-0.66,0.02,-34.45,-124.8,221.07,478

12766,-0.95,-0.57,0.08,-29.16,-121.78,221.59,475

12786,-0.98,-0.47,0.15,10.19,-91.1,210.44,473

12806,-0.84,-0.43,0.04,33.45,-72.52,173.94,472

12826,-0.88,-0.09,0.05,45.41,-33.01,134.94,470

12847,-0.93,0.21,0.17,18.54,-25.78,90.17,470

12866,-0.89,0.2,0.1,-6.82,-11.56,35.37,470

12887,-0.8,0.02,0.05,-21.57,7.25,-8.86,470

12906,-0.74,-0.09,0.08,-34.87,19.28,-55.32,470

12926,-0.76,-0.21,-0.1,-54.36,34.18,-88.93,470

12946,-1.24,-0.54,0.4,-35.06,50.16,-79.64,471

12966,-1.56,-0.21,0.43,-18.0,-1.44,6.61,474

12986,-0.76,-0.16,-0.05,-17.39,41.42,-82.24,475

13006,-0.89,-0.54,-0.08,-52.01,36.83,-80.02,474

13026,-0.61,-0.59,-0.09,-29.92,26.12,-28.04,472

13046,-0.77,-0.51,0.02,15.39,47.26,-38.13,472

13066,-1.01,-0.46,0.09,14.83,50.0,-33.98,478

13086,-0.94,-0.39,0.09,22.1,45.74,-50.47,476

13106,-0.87,-0.27,-0.14,27.0,50.22,-32.25,475

13126,-0.98,-0.24,-0.23,19.44,38.74,-35.69,474

13147,-0.93,-0.29,-0.06,8.81,33.32,-30.34,473

13166,-0.89,-0.39,0.02,12.71,34.71,-43.08,474

13187,-0.94,-0.35,-0.02,17.27,31.67,-28.88,476

13206,-0.86,-0.31,-0.03,12.52,29.63,-38.62,475

13227,-0.93,-0.26,-0.03,12.66,30.03,-35.97,474

13246,-0.96,-0.22,-0.07,9.35,25.25,-31.64,473

13266,-0.88,-0.26,-0.09,3.07,20.59,-25.44,473

13286,-0.86,-0.33,-0.04,2.39,20.87,-23.16,474

13306,-0.9,-0.27,-0.03,1.23,19.51,-32.29,474

13326,-0.91,-0.24,-0.05,-6.18,18.13,-24.43,473

13346,-0.88,-0.3,-0.1,-11.32,17.05,-34.36,473

13366,-0.85,-0.34,-0.07,-10.99,16.13,-33.98,473

13386,-0.86,-0.32,-0.03,-7.34,18.83,-29.03,473

13406,-0.92,-0.28,0.0,-6.9,18.74,-29.58,473

13426,-0.89,-0.27,-0.01,-12.7,17.72,-43.26,473

13446,-0.87,-0.29,-0.03,-8.58,19.28,-43.2,473

13466,-0.94,-0.27,-0.05,-6.7,21.71,-49.11,473

13487,-0.93,-0.29,-0.02,-5.03,24.68,-49.3,474

13506,-0.85,-0.36,0.03,6.86,31.4,-65.63,476

13527,-0.91,-0.32,0.04,20.71,41.46,-72.56,478

13546,-1.04,-0.31,0.09,31.41,50.87,-77.45,480

13566,-1.24,-0.28,0.12,53.06,65.58,-95.16,484

13586,-1.79,-0.12,0.37,96.37,85.03,-116.71,488

13606,-1.93,-0.18,0.44,113.78,73.84,-168.92,492

13626,-1.41,-0.15,0.49,87.03,50.8,-163.4,492

13646,-1.15,-0.38,-0.05,29.21,34.97,-122.08,491

13666,-0.79,-0.5,-0.46,-49.66,1.17,-100.97,489

13686,-0.36,-0.62,-0.52,-109.37,-33.64,-72.16,487

13706,-0.16,-1.05,-0.63,-101.23,-7.64,-65.56,487

13726,-0.29,-1.16,-0.35,-27.31,-16.23,-23.59,488

13746,-0.14,-0.91,-0.17,33.24,-50.92,42.09,488

13766,-0.1,-0.68,-0.25,44.16,-66.33,112.84,488

13787,-0.05,-0.56,-0.21,34.07,-81.79,161.31,487

13806,-0.27,-0.77,-0.17,21.1,-93.27,188.01,487

13827,-0.4,-0.84,-0.12,22.13,-107.78,219.11,486

13846,-0.63,-0.68,-0.03,-6.29,-127.04,228.65,485

13867,-0.75,-0.56,0.04,-33.35,-148.23,255.08,483

13886,-0.77,-0.55,0.11,-58.01,-137.29,256.07,479

13906,-0.97,-0.57,0.12,-59.25,-136.25,221.16,475

13926,-1.18,-0.46,0.26,-28.33,-114.52,214.87,473

13946,-0.92,-0.37,0.1,1.33,-96.46,169.31,472

13966,-0.86,-0.27,0.11,38.58,-53.79,138.89,469

13986,-0.74,-0.18,0.22,65.45,-25.99,106.01,469

14006,-0.81,0.2,0.18,54.81,-11.15,86.46,469

14026,-1.02,0.35,0.13,13.3,-8.02,24.61,470

14046,-0.82,0.12,0.11,-32.47,-13.71,-26.91,470

14066,-0.63,-0.26,-0.07,-55.97,3.46,-78.97,470

14086,-0.63,-0.51,-0.27,-62.21,26.03,-94.04,470

14106,-0.79,-0.8,-0.1,-7.42,53.57,-82.27,468

14127,-1.67,-0.46,0.49,63.61,61.22,29.77,469

14146,-1.45,0.19,0.21,23.52,16.77,-20.0,477

14167,-0.8,-0.18,0.14,-69.48,18.12,-78.71,474

14186,-0.45,-0.86,0.04,-65.6,37.31,-57.73,473

14206,-0.71,-1.01,-0.1,39.47,50.97,-22.23,471

14226,-1.1,-0.04,0.05,54.13,42.33,-8.86,472

14246,-0.99,0.29,0.19,2.46,28.27,-17.87,475

14266,-0.9,-0.14,-0.0,-29.46,33.64,-18.61,473

14286,-0.96,-0.51,-0.11,-4.53,38.09,-45.92,473

14306,-1.0,-0.3,-0.11,19.38,34.24,-24.57,473

14326,-0.89,-0.06,0.01,13.7,32.5,-36.13,474

14346,-0.97,-0.21,0.05,5.24,40.24,-51.49,474

14366,-0.98,-0.26,-0.04,0.17,26.73,-34.39,474

14386,-0.78,-0.44,-0.05,9.04,30.65,-36.77,474

14406,-0.9,-0.41,-0.04,22.05,32.36,-37.35,473

14427,-0.92,-0.29,-0.07,15.53,25.93,-29.16,473

14446,-0.81,-0.3,-0.05,0.78,19.43,-31.6,473

14467,-0.88,-0.32,0.0,-3.05,21.75,-40.14,473

14486,-0.91,-0.25,-0.03,-2.87,19.28,-20.27,473

14507,-0.93,-0.12,-0.01,-8.97,17.61,-27.14,473

14526,-0.96,-0.03,0.0,-16.39,17.66,-34.15,474

14546,-0.96,-0.06,-0.13,-35.93,9.81,-34.53,474

14566,-0.86,-0.34,-0.12,-53.98,2.7,-47.51,473

14586,-0.8,-0.57,0.02,-47.74,6.74,-36.37,473

14606,-0.81,-0.53,0.09,-24.03,16.07,-44.57,474

14626,-0.87,-0.31,0.02,-12.65,20.9,-44.88,476

14646,-0.91,-0.3,-0.02,-11.57,25.51,-55.42,475

14666,-0.89,-0.29,0.01,0.45,31.37,-60.99,475

14686,-0.87,-0.26,0.09,20.63,44.42,-64.55,477

14706,-0.96,-0.39,0.31,58.49,69.0,-106.76,481

14726,-1.36,-0.42,0.19,106.65,102.22,-122.19,485

14746,-2.0,-0.16,0.54,162.49,119.48,-122.17,490

14767,-2.0,0.32,0.56,163.55,65.6,-154.24,493

14786,-1.37,0.26,0.27,40.1,52.12,-162.98,493

14807,-0.79,-0.51,-0.39,-60.12,32.9,-125.11,491

14826,-0.58,-0.69,-0.56,-135.35,-30.29,-104.48,487

14846,-0.24,-0.86,-0.59,-121.57,-26.78,-61.9,486

14866,-0.33,-1.17,-0.33,-50.88,-23.76,-39.13,487

14886,-0.25,-0.99,-0.23,28.28,-76.57,33.2,488

14906,-0.16,-0.57,-0.21,45.13,-83.06,115.55,488

14926,-0.17,-0.49,-0.26,38.95,-97.64,147.97,487

14946,-0.37,-0.58,-0.25,21.82,-113.44,190.51,486

14966,-0.5,-0.69,-0.2,3.9,-134.13,226.64,485

14986,-0.72,-0.82,-0.09,-0.01,-140.31,239.73,484

15006,-0.93,-0.7,0.02,-13.34,-151.32,242.91,482

15026,-0.8,-0.53,0.16,-51.42,-154.86,248.4,479

15046,-0.65,-0.42,0.06,-67.16,-124.0,241.23,476

15067,-0.8,-0.5,0.04,-35.29,-106.84,207.91,473

15086,-0.95,-0.63,-0.16,2.37,-95.32,172.76,470

15107,-0.83,-0.29,0.17,29.35,-60.58,151.26,469

15126,-0.64,-0.06,0.08,24.94,-27.21,99.72,469

15147,-0.82,0.09,0.07,20.74,-5.99,57.25,469

15166,-0.83,0.24,0.13,-8.97,-5.65,10.06,469

15186,-0.74,0.12,-0.04,-60.41,0.99,-44.48,470

15206,-0.72,-0.2,-0.22,-102.47,14.33,-80.97,469

15226,-0.94,-0.8,0.22,-61.03,41.84,-69.77,468

15246,-1.93,-0.6,0.71,8.95,19.35,53.44,467

15266,-0.9,-0.1,0.22,6.71,28.53,-59.29,474

15286,-1.06,-0.29,-0.07,-71.0,20.88,-53.21,471

15306,-0.71,-0.57,-0.35,-42.33,21.32,-16.62,470

15326,-0.59,-0.78,-0.14,37.71,39.17,-4.57,470

15346,-1.27,-0.29,-0.13,38.83,38.06,-18.46,471

15366,-1.22,-0.12,-0.11,-9.6,8.32,-15.25,473

15386,-0.66,-0.46,-0.09,-4.36,20.03,-1.36,472

15407,-0.97,-0.28,0.08,26.48,23.58,-7.55,471

15426,-0.99,0.05,0.15,20.97,14.12,-4.93,471

15447,-0.88,0.09,0.15,2.81,13.57,-1.5,472

15466,-1.01,-0.03,0.1,-4.61,15.11,-5.36,472

15486,-0.98,-0.17,0.09,-6.82,6.93,-10.29,472

15506,-0.87,-0.2,0.1,-8.33,8.48,-6.14,471

15526,-0.95,-0.21,0.07,-8.74,8.38,-12.28,472

15546,-0.95,-0.16,0.0,-4.42,7.74,-5.62,472

15566,-0.91,-0.14,0.07,-4.01,7.6,-3.61,471

15586,-0.95,-0.17,0.1,-5.63,7.42,-5.57,471

15606,-1.04,-0.19,0.07,-9.17,4.99,-12.79,471

15626,-0.88,-0.33,0.04,-6.76,-1.33,-8.87,470

15646,-0.86,-0.35,-0.01,-3.26,4.04,-7.35,470

15666,-0.96,-0.32,-0.08,-1.28,1.57,-1.59,469

15686,-1.0,-0.16,-0.07,8.0,1.8,2.01,469

15707,-1.01,-0.02,0.08,16.71,2.88,-0.91,469

15726,-0.92,-0.09,0.2,24.26,5.2,-8.88,469

15747,-0.94,-0.07,0.23,20.39,7.13,-9.15,469

15766,-0.96,-0.11,0.16,4.2,0.56,-0.69,469

15787,-0.9,-0.19,0.08,-3.22,-2.17,-6.03,469

15806,-0.91,-0.21,0.08,-0.29,-3.09,-0.78,468

15826,-0.95,-0.15,0.1,3.94,-3.3,2.71,468

15846,-0.93,-0.11,0.15,0.94,-3.79,3.34,468

15866,-0.89,-0.21,0.15,-2.73,-3.53,4.24,468

15886,-0.91,-0.22,0.1,-2.03,-0.17,-2.35,468

15906,-0.93,-0.15,0.07,-0.29,-0.26,-7.28,468

15926,-0.97,-0.12,0.07,-0.18,0.97,-2.16,468

15946,-0.97,-0.16,0.11,-3.51,-1.64,-3.55,468

15966,-0.9,-0.24,0.11,-4.96,-2.69,3.38,468

15986,-0.89,-0.28,0.08,-2.9,-1.44,-9.73,468

16006,-0.91,-0.24,0.09,3.44,0.44,-4.16,467

16026,-0.94,-0.13,0.08,6.29,1.72,1.5,467

16047,-0.98,-0.11,0.1,2.97,0.83,-7.51,467

16066,-0.93,-0.2,0.14,-0.74,-1.85,-3.67,468

16087,-0.9,-0.23,0.14,0.72,-0.49,5.14,468

16106,-0.94,-0.17,0.13,0.17,0.42,7.25,467

16126,-0.94,-0.14,0.09,-1.9,-0.14,7.01,467

16146,-0.92,-0.16,0.09,-3.68,-1.7,2.81,467

16166,-0.92,-0.23,0.09,-2.76,-0.33,-3.12,467

16186,-0.93,-0.23,0.11,-1.06,-0.05,-9.1,467

16206,-0.92,-0.19,0.12,-0.21,-0.0,1.08,467

16226,-0.92,-0.17,0.13,-2.76,-0.86,-0.95,467

16246,-0.93,-0.18,0.11,-5.57,-4.19,-5.5,467

16266,-0.93,-0.21,0.09,-5.57,-0.89,-13.62,467

16286,-0.9,-0.28,0.08,1.56,1.28,0.87,467

