Time,AccX,AccY,AccZ,GyroX,GyroY,GyroZ,Capacitance

7268,-0.92,-0.22,0.06,-1.93,2.15,-5.32,475

7288,-0.95,-0.24,0.0,1.73,5.68,-11.24,473

7308,-0.97,-0.2,0.04,-5.88,0.32,3.74,473

7328,-0.88,-0.37,0.05,-5.76,2.44,1.26,473

7348,-0.91,-0.32,0.04,1.98,2.12,-15.92,473

7368,-0.91,-0.24,0.03,2.6,2.32,-13.28,474

7388,-0.92,-0.2,0.05,-1.01,1.18,-4.12,474

7408,-0.91,-0.26,0.01,0.19,4.29,-13.95,474

7429,-0.93,-0.3,0.03,-4.71,0.25,-7.76,474

7448,-0.89,-0.38,0.05,-5.34,0.4,-10.61,475

7469,-0.89,-0.32,0.04,-0.82,1.09,-14.82,475

7488,-0.9,-0.27,0.06,-0.42,0.25,-15.61,475

7508,-0.9,-0.21,0.09,-0.53,2.06,-16.01,475

7528,-0.96,-0.16,0.07,4.37,6.51,-17.55,476

7548,-1.0,-0.07,0.06,6.22,7.97,-17.57,476

7568,-0.97,-0.12,0.09,8.99,10.02,-24.37,476

7588,-0.89,-0.23,0.09,12.56,12.87,-38.2,477

7608,-0.89,-0.35,0.12,16.16,16.22,-42.35,478

7628,-0.85,-0.39,0.1,19.83,16.25,-48.41,480

7648,-0.84,-0.39,0.08,19.31,17.27,-46.2,481

7668,-0.98,-0.28,0.07,17.44,17.79,-45.33,483

7688,-0.98,-0.22,0.12,7.03,20.02,-44.25,485

7708,-0.88,-0.28,0.12,-4.88,15.48,-51.36,486

7729,-0.99,-0.3,0.08,-11.44,16.92,-35.73,488

7749,-0.97,-0.37,0.02,-23.92,10.49,-48.55,490

7770,-0.85,-0.58,-0.02,-21.44,11.41,-33.26,490

7789,-0.86,-0.61,0.04,-3.76,2.37,-10.55,491

7810,-0.86,-0.47,0.0,6.68,-5.74,16.14,491

7829,-0.95,-0.34,0.02,-1.29,-25.66,30.9,492

7849,-0.92,-0.38,0.06,-20.51,-45.04,54.75,492

7869,-0.86,-0.46,0.1,-23.49,-55.82,68.81,491

7889,-0.81,-0.47,0.08,-20.77,-62.3,87.62,491

7909,-0.87,-0.36,0.09,-15.5,-60.5,97.07,490

7929,-0.93,-0.34,0.13,-14.22,-62.17,111.41,490

7949,-0.9,-0.38,0.12,-11.88,-59.02,101.22,489

7969,-0.84,-0.38,0.19,1.08,-51.42,116.09,487

7989,-0.75,-0.25,0.13,9.95,-46.07,114.44,486

8009,-0.79,-0.23,-0.04,7.86,-41.54,90.43,485

8029,-0.95,-0.21,0.12,12.36,-34.78,86.3,483

8049,-0.79,-0.19,0.16,11.89,-30.04,74.8,484

8070,-0.79,-0.19,0.18,28.19,-8.12,44.4,484

8090,-0.91,-0.03,0.13,34.41,2.46,51.75,483

8111,-0.92,0.13,0.12,12.91,2.87,17.36,483

8130,-0.91,0.06,0.14,-22.77,-1.11,-8.73,483

8151,-0.84,0.02,0.17,-57.09,-3.02,-28.87,483

8170,-0.84,-0.0,0.1,-89.61,-3.94,-35.11,483

8190,-0.99,-0.17,0.07,-115.96,3.24,-46.56,483

8210,-1.25,-0.27,0.41,-104.68,-2.01,-14.31,483

8230,-1.08,-0.34,0.34,-81.66,-14.41,-22.01,484

8250,-0.91,-0.37,-0.1,-56.22,19.54,-56.76,484

8270,-0.92,-0.27,-0.07,-60.28,10.51,-47.24,484

8290,-0.74,-0.39,-0.16,-36.14,27.13,-27.11,484

8310,-0.78,-0.64,0.11,2.12,38.93,-31.15,484

8330,-0.84,-0.43,0.33,12.13,41.35,-33.92,484

8350,-0.95,-0.17,0.16,-6.3,34.08,-30.24,484

8370,-0.88,-0.22,-0.09,-17.76,30.22,-19.39,484

8390,-0.88,-0.4,-0.08,-4.69,36.18,-25.87,483

8411,-0.98,-0.3,-0.02,5.95,32.86,-24.37,484

8430,-0.87,-0.26,0.03,-5.79,26.77,-23.8,484

8451,-0.89,-0.39,-0.06,-9.29,30.11,-24.61,484

8470,-0.93,-0.41,-0.15,-4.69,24.46,-11.47,484

8491,-0.92,-0.39,-0.16,-2.56,21.09,-18.58,484

8510,-0.84,-0.45,0.01,2.8,18.43,-12.23,483

8530,-0.89,-0.37,0.05,8.24,19.77,-6.66,483

8550,-0.88,-0.27,-0.02,7.96,19.88,-17.31,483

8570,-0.92,-0.23,-0.05,6.31,20.02,-16.94,483

8590,-0.92,-0.24,-0.0,3.84,17.77,-11.96,482

8610,-0.94,-0.16,-0.01,-3.7,15.65,-16.36,482

8630,-0.92,-0.21,0.02,-10.65,12.99,-24.94,482

8650,-0.9,-0.26,0.07,-6.46,14.84,-11.06,482

8670,-0.89,-0.18,0.05,-3.88,18.26,-23.83,482

8690,-0.9,-0.13,-0.06,-4.24,23.82,-21.62,482

8710,-0.99,-0.21,-0.07,-14.27,18.09,-35.87,482

8730,-0.85,-0.37,-0.11,-20.24,14.35,-46.03,482

8751,-0.88,-0.38,-0.07,-7.49,20.15,-34.31,481

8770,-0.85,-0.3,-0.01,-0.75,22.75,-30.69,482

8791,-0.9,-0.27,0.0,3.15,26.99,-54.28,482

8810,-0.85,-0.36,0.19,23.89,36.14,-64.4,483

8830,-0.95,-0.23,0.11,55.69,53.01,-79.26,486

8850,-1.15,-0.24,0.07,70.12,64.64,-96.36,488

8870,-1.25,-0.46,0.36,97.41,68.98,-114.52,491

8890,-1.41,-0.34,0.39,123.76,99.36,-111.95,494

8910,-1.48,-0.12,0.44,123.67,102.54,-115.93,496

8930,-1.23,-0.07,0.21,73.63,84.63,-116.65,497

8950,-0.98,-0.15,-0.18,-9.24,45.67,-89.49,497

8970,-0.7,-0.53,-0.47,-67.55,20.92,-88.0,498

8990,-0.63,-1.06,-0.26,-42.42,38.89,-77.17,499

9010,-0.73,-1.29,-0.1,11.79,30.15,-34.51,500

9030,-0.45,-0.82,-0.17,54.82,7.39,19.03,500

9051,-0.42,-0.65,-0.2,57.28,-5.72,58.6,500

9070,-0.54,-0.58,-0.17,48.19,-27.45,91.77,500

9091,-0.58,-0.61,-0.13,30.5,-55.88,133.37,499

9110,-0.58,-0.65,-0.14,14.83,-78.81,147.92,498

9131,-0.59,-0.7,-0.1,4.04,-101.36,167.41,497

9150,-0.56,-0.65,-0.08,-9.3,-111.37,177.75,495

9170,-0.6,-0.55,-0.1,-26.91,-119.43,190.49,494

9190,-0.77,-0.56,-0.03,-45.09,-121.51,186.3,491

9210,-0.83,-0.57,0.03,-52.57,-131.37,182.55,488

9230,-0.76,-0.52,0.12,-41.09,-116.87,177.44,485

9250,-0.77,-0.46,0.1,-14.85,-95.94,157.19,482

9270,-0.82,-0.27,0.12,-6.02,-75.54,150.29,480

9290,-0.87,-0.21,-0.11,11.23,-44.32,98.06,480

9310,-1.02,-0.18,0.16,20.53,-29.39,61.08,479

9330,-0.72,-0.07,0.09,30.16,-4.07,55.99,479

9350,-0.84,-0.06,-0.0,26.37,19.77,-12.62,480

9370,-0.84,-0.06,0.07,-3.09,15.47,-32.98,480

9391,-0.67,-0.11,-0.08,-38.57,22.35,-63.34,480

9410,-0.83,-0.33,0.23,-58.14,29.38,-76.42,480

9431,-1.75,-0.39,0.72,-38.91,18.17,14.53,481

9450,-1.02,-0.24,0.19,-29.53,3.7,-36.45,484

9470,-0.85,-0.29,-0.12,-50.3,42.44,-72.89,483

9490,-0.87,-0.31,-0.15,-63.23,5.12,-32.03,482

9510,-0.77,-0.34,-0.09,-23.04,26.92,-17.36,482

9530,-0.93,-0.33,0.09,-19.52,26.12,-35.24,484

9550,-0.95,-0.36,0.06,-26.8,25.96,-26.98,483

9570,-0.83,-0.41,-0.01,-21.11,28.66,-19.09,483

9590,-0.86,-0.45,-0.09,2.65,36.02,-30.72,483

9610,-1.02,-0.24,-0.09,13.6,32.99,-24.39,483

9630,-0.98,-0.14,-0.17,-1.64,25.3,-11.83,483

9650,-0.85,-0.36,0.01,-16.77,18.4,-31.07,483

9670,-0.89,-0.48,0.07,-13.76,19.16,-35.99,483

9691,-0.88,-0.34,-0.02,-13.15,16.47,-28.8,483

9710,-0.86,-0.36,-0.03,-7.09,19.31,-18.31,483

9731,-0.93,-0.27,0.03,0.62,20.66,-17.8,483

9750,-0.9,-0.18,0.03,-6.08,14.69,-24.21,483

9771,-0.87,-0.28,0.04,-12.95,17.25,-18.94,483

9790,-0.9,-0.32,0.01,-8.54,19.45,-18.24,483

9810,-0.91,-0.24,0.04,-4.88,20.28,-20.55,483

9830,-0.91,-0.18,0.02,0.08,23.07,-30.91,483

9850,-0.97,-0.18,-0.02,-6.56,19.86,-32.64,483

9870,-0.84,-0.36,-0.13,-7.27,25.04,-41.71,483

9890,-0.88,-0.42,-0.01,15.72,34.7,-39.0,482

9910,-0.95,-0.15,0.05,31.21,37.09,-39.23,483

9930,-0.96,-0.01,0.02,25.52,37.28,-50.77,483

9950,-0.9,-0.09,0.18,24.01,36.95,-75.02,484

9970,-0.88,-0.24,0.28,46.88,50.9,-104.84,486

9990,-1.06,-0.26,0.07,73.9,73.36,-104.46,488

10010,-1.2,-0.48,0.1,104.25,92.23,-135.84,491

10031,-1.54,-0.31,0.39,147.57,111.65,-143.63,496

10050,-1.8,-0.08,0.49,138.44,99.21,-125.5,498

10071,-1.54,-0.09,0.15,90.94,66.35,-135.04,501

10090,-1.09,-0.18,0.0,11.72,56.57,-120.42,502

10110,-0.57,-0.49,-0.31,-86.94,-8.69,-84.59,501

10130,-0.17,-0.94,-0.54,-110.89,20.35,-68.15,501

10150,-0.64,-1.31,-0.25,-51.41,49.54,-55.14,502

10170,-0.55,-1.11,-0.1,20.79,-2.36,-8.03,503

10190,-0.19,-0.72,-0.2,40.28,-7.59,49.17,502

10210,-0.27,-0.53,-0.14,31.49,-29.34,97.71,502

10230,-0.31,-0.7,-0.24,16.94,-53.34,135.12,501

10250,-0.36,-0.77,-0.17,23.25,-74.98,178.11,500

10270,-0.36,-0.71,-0.19,19.81,-102.33,197.02,499

10290,-0.42,-0.63,-0.16,1.38,-120.35,221.84,497

10310,-0.7,-0.57,-0.03,-27.72,-133.63,235.36,494

10331,-0.88,-0.49,0.06,-70.31,-156.14,234.05,492

10350,-0.82,-0.43,0.07,-98.02,-162.03,228.78,488

10371,-0.97,-0.55,0.19,-83.41,-135.72,187.34,485

10390,-0.96,-0.5,0.11,-40.98,-112.44,171.31,483

10411,-0.84,-0.25,0.09,-3.53,-64.12,126.79,482

10430,-0.82,-0.07,0.08,21.78,-21.66,61.45,482

10450,-0.85,0.0,0.02,30.3,6.81,8.65,482

10470,-0.84,0.02,0.06,10.08,19.44,-34.27,483

10490,-0.59,-0.22,-0.1,-30.71,30.47,-71.39,483

10510,-0.71,-0.51,0.24,-29.93,55.12,-95.21,482

10530,-1.9,-0.49,0.62,2.16,42.96,-5.06,483

10550,-0.92,-0.4,-0.09,5.57,24.55,-58.69,485

10570,-0.69,-0.49,-0.23,-11.9,57.45,-73.76,484

10590,-0.79,-0.48,-0.08,-28.8,28.29,-38.95,483

10610,-0.87,-0.43,0.0,5.4,36.44,-24.73,484

10630,-0.96,-0.17,0.11,-6.01,26.58,-24.57,486

10650,-0.96,-0.18,-0.02,-29.11,27.57,-38.56,485

10671,-0.83,-0.46,-0.16,-11.44,31.51,-30.85,486

10690,-0.89,-0.47,-0.08,20.05,35.48,-33.66,486

10711,-0.99,-0.21,-0.05,15.64,29.28,-24.19,485

10730,-0.9,-0.26,-0.11,-8.88,23.15,-37.88,485

10750,-0.8,-0.52,-0.04,-16.1,18.35,-26.9,485

10770,-0.85,-0.6,0.02,1.79,25.68,-25.14,484

10790,-0.91,-0.35,-0.07,12.59,23.01,-8.05,484

10810,-0.86,-0.31,-0.08,10.66,23.5,-16.84,484

10830,-0.9,-0.33,-0.0,9.23,22.06,-21.95,484

10850,-0.93,-0.26,0.01,8.27,20.15,-27.12,484

10870,-0.9,-0.22,-0.05,1.89,19.3,-21.17,484

10890,-0.91,-0.24,-0.01,1.58,21.06,-24.56,484

10910,-0.92,-0.21,0.06,8.62,24.25,-31.8,484

10930,-0.95,-0.15,0.05,12.12,27.02,-35.92,484

10950,-0.93,-0.14,0.01,7.92,26.51,-32.18,484

10971,-0.91,-0.21,-0.02,9.81,28.52,-51.54,484

10990,-0.93,-0.25,-0.04,12.04,30.46,-60.35,484

11011,-0.92,-0.3,-0.02,15.9,33.12,-61.32,484

11030,-0.88,-0.26,0.04,24.54,37.13,-62.75,486

11051,-0.94,-0.16,0.05,31.87,46.4,-69.42,487

11070,-1.11,-0.09,0.03,38.45,57.93,-87.28,490

11090,-1.52,-0.26,0.31,58.8,77.73,-126.98,495

11110,-1.85,-0.39,0.57,112.37,97.41,-149.06,500

11130,-1.69,-0.06,0.55,139.86,91.91,-154.96,503

11150,-1.39,-0.01,0.25,81.6,64.69,-148.37,505

11170,-0.9,-0.32,-0.32,-40.56,10.28,-109.57,505

11190,-0.51,-0.63,-0.49,-122.86,-16.7,-97.59,503

11210,-0.36,-1.02,-0.6,-120.1,2.69,-83.13,502

11230,-0.37,-1.29,-0.44,-59.24,11.73,-48.79,502

11250,-0.39,-1.01,-0.29,20.31,-13.23,14.17,503

11270,-0.24,-0.72,-0.14,58.12,-31.94,49.5,502

11290,-0.22,-0.59,-0.2,51.73,-64.62,118.56,502

11311,-0.11,-0.6,-0.21,34.48,-82.0,175.44,501

11330,-0.3,-0.68,-0.17,26.08,-90.47,192.87,500

11351,-0.39,-0.73,-0.19,11.4,-121.36,218.09,499

11370,-0.5,-0.69,-0.16,-13.84,-131.98,239.8,497

11390,-0.69,-0.61,0.02,-29.47,-146.9,252.22,494

11410,-0.79,-0.49,0.07,-71.01,-156.62,263.68,491

11430,-0.9,-0.47,0.07,-87.3,-151.45,239.82,487

11450,-1.04,-0.6,0.01,-48.5,-119.86,199.83,483

11470,-0.99,-0.49,0.13,11.06,-91.82,172.29,480

11490,-0.75,-0.07,0.13,44.66,-41.49,140.88,479

11510,-0.85,0.15,-0.01,51.69,-1.88,58.05,480

11530,-0.9,0.18,0.11,38.31,10.8,25.92,480

11550,-0.77,0.15,0.0,3.61,24.49,-29.68,480

11570,-0.9,0.15,-0.0,-45.4,28.15,-63.85,480

11590,-0.85,-0.28,0.31,-84.88,20.81,-94.65,480

11611,-1.69,-0.37,0.83,-65.06,32.12,-15.37,481

11630,-1.18,-0.16,0.12,-83.55,-21.25,-43.79,484

11651,-0.58,-0.46,-0.24,-74.33,47.28,-90.92,483

11670,-0.81,-0.51,-0.11,-74.59,17.07,-62.49,483

11691,-0.72,-0.56,-0.07,-14.66,44.18,-33.13,485

11710,-0.97,-0.4,0.11,5.17,35.64,-43.53,486

11730,-0.83,-0.21,0.08,-19.56,36.6,-31.98,485

11750,-0.93,-0.44,-0.1,-24.54,44.15,-49.8,486

11770,-0.89,-0.43,-0.13,-5.08,34.11,-42.46,485

11790,-0.94,-0.39,-0.12,14.54,39.31,-35.7,484

11810,-0.95,-0.29,-0.12,3.26,27.25,-35.11,485

11830,-0.83,-0.36,-0.06,-15.47,20.63,-25.58,485

11850,-0.83,-0.5,0.01,-18.24,22.72,-33.21,485

11870,-0.87,-0.48,-0.05,-8.14,23.51,-25.96,485

11890,-0.92,-0.37,-0.09,0.39,20.54,-19.26,485

11910,-0.86,-0.37,-0.05,-3.06,17.99,-26.47,484

11930,-0.89,-0.34,0.03,-5.52,16.37,-17.57,484

11951,-0.86,-0.33,-0.01,-7.46,17.64,-22.19,484

11970,-0.89,-0.37,-0.05,-8.33,17.04,-23.28,484

11991,-0.86,-0.37,0.02,-6.79,17.7,-17.49,483

12010,-0.89,-0.33,0.05,2.39,20.73,-24.37,483

12030,-0.9,-0.22,0.0,10.96,27.7,-38.47,483

12050,-0.93,-0.13,0.02,13.93,31.91,-32.15,483

12070,-0.97,-0.04,0.03,10.66,33.01,-46.09,483

12090,-0.93,-0.01,0.0,7.21,35.91,-55.7,484

12110,-0.92,-0.05,0.07,13.69,43.56,-58.84,484

12130,-0.89,-0.18,0.27,35.73,55.57,-82.67,486

12150,-0.99,-0.34,0.23,75.41,87.56,-117.15,490

12170,-1.43,-0.43,0.23,112.34,115.68,-138.11,494

12190,-2.0,-0.41,0.38,164.96,124.66,-143.79,499

12210,-1.98,-0.04,0.47,170.54,96.15,-160.68,502

12230,-1.3,0.14,0.27,92.82,63.86,-155.43,503

12251,-1.08,-0.35,-0.34,-11.4,42.03,-115.49,502

12270,-0.64,-0.54,-0.54,-104.86,-22.69,-84.72,501

12291,-0.15,-0.82,-0.58,-117.72,9.19,-59.4,501

12310,-0.3,-1.3,-0.27,-63.32,27.28,-54.46,501

12331,-0.3,-1.22,-0.21,20.37,-18.47,41.29,502

12350,-0.07,-0.74,-0.08,58.71,-30.98,86.88,502

12370,-0.09,-0.57,-0.21,46.07,-54.5,131.99,501

12390,-0.13,-0.57,-0.24,27.31,-70.85,174.14,500

12410,-0.34,-0.71,-0.2,15.78,-90.65,206.18,499

12430,-0.43,-0.75,-0.2,10.36,-118.38,234.91,498

12450,-0.6,-0.7,-0.12,-6.46,-132.23,250.33,496

12470,-0.8,-0.59,0.03,-29.92,-150.78,252.23,493

12490,-0.86,-0.57,0.08,-61.75,-154.21,246.32,490

12510,-1.01,-0.52,0.22,-64.77,-145.23,230.56,485

12530,-0.94,-0.33,0.08,-46.6,-132.87,212.27,482

12550,-0.95,-0.4,0.19,-14.65,-78.85,146.65,479

12570,-0.73,-0.11,0.19,18.91,-43.54,102.71,479

12591,-0.94,0.14,0.09,25.37,-9.68,44.23,480

12610,-0.92,0.22,0.14,-9.04,-9.37,-5.5,481

12631,-0.73,0.09,0.02,-48.4,6.29,-56.05,481

12650,-0.54,-0.36,-0.17,-75.99,16.41,-87.52,481

12670,-0.62,-0.63,0.05,-37.84,50.63,-80.8,480

12690,-1.55,-0.42,0.62,29.17,64.95,7.21,481

12710,-1.64,-0.04,0.21,-0.36,0.9,-24.52,485

12730,-0.74,-0.13,-0.13,-60.37,29.27,-84.08,484

12750,-0.62,-0.49,-0.04,-87.56,27.6,-70.45,484

12770,-0.65,-0.84,-0.09,-22.74,38.2,-21.04,483

12790,-1.01,-0.51,-0.02,33.17,46.26,-35.22,486

12810,-0.97,-0.02,0.04,2.5,33.64,-30.58,485

12830,-0.91,-0.22,-0.05,-33.5,28.69,-34.21,485

12850,-0.91,-0.39,-0.08,-30.33,28.14,-26.71,484

12870,-0.89,-0.49,-0.07,-0.14,36.29,-30.54,484

12891,-0.92,-0.34,-0.05,21.75,36.38,-29.99,484

12910,-0.91,-0.2,-0.0,14.79,34.14,-30.48,485

12931,-0.92,-0.21,0.04,8.01,36.6,-41.01,485

12950,-0.96,-0.23,-0.07,6.99,35.07,-25.45,485

12971,-0.85,-0.35,-0.07,-0.42,24.09,-27.44,484

12990,-0.86,-0.43,-0.03,-6.83,23.68,-26.83,484

13010,-0.86,-0.48,-0.06,0.53,23.68,-33.41,484

13030,-0.82,-0.46,-0.01,8.85,24.95,-21.26,483

13050,-0.86,-0.38,0.05,20.44,30.35,-31.66,484

13070,-0.95,-0.16,-0.02,24.18,34.03,-23.51,484

13090,-0.93,-0.14,-0.1,19.72,33.44,-36.32,484

13110,-0.95,-0.25,0.01,19.25,33.74,-37.65,484

13130,-0.94,-0.4,0.09,29.06,39.41,-53.99,484

13150,-0.89,-0.36,0.11,45.31,44.86,-50.11,485

13170,-0.91,-0.05,-0.07,42.6,45.5,-38.86,486

13190,-0.96,0.0,-0.01,18.7,42.54,-57.35,487

13210,-1.04,-0.15,0.18,22.24,57.64,-74.18,489

13231,-1.19,-0.19,0.28,63.06,80.49,-104.36,493

13250,-1.68,-0.26,0.47,105.69,105.01,-133.04,498

13271,-2.0,-0.17,0.47,148.82,116.41,-159.35,503

13290,-1.53,-0.1,0.1,123.47,91.27,-180.71,504

13310,-1.04,-0.16,-0.3,25.05,32.9,-121.68,504

13330,-0.62,-0.37,-0.57,-97.9,-27.42,-92.06,502

13350,-0.2,-0.74,-0.76,-141.96,-22.33,-70.5,500

13370,-0.25,-1.28,-0.47,-105.32,3.06,-59.33,501

13390,-0.38,-1.3,-0.33,-15.7,-24.4,-11.39,502

13410,-0.15,-0.84,-0.21,47.93,-50.07,35.89,502

13430,-0.21,-0.53,-0.13,39.87,-65.28,82.78,501

13450,-0.24,-0.54,-0.18,17.18,-94.01,146.95,500

13470,-0.32,-0.65,-0.14,-0.39,-102.32,171.68,499

13490,-0.43,-0.79,-0.12,-4.59,-120.24,193.33,498

13510,-0.53,-0.8,-0.05,-5.44,-130.49,207.29,497

13531,-0.73,-0.73,0.1,-5.14,-138.5,230.94,495

13550,-0.78,-0.59,0.19,-21.14,-136.26,236.11,493

13571,-0.87,-0.48,0.22,-49.55,-129.68,239.43,489

13590,-1.0,-0.47,0.19,-43.93,-123.54,220.39,486

13611,-0.93,-0.43,-0.04,0.74,-89.31,162.89,482

13630,-0.93,-0.22,0.01,27.9,-72.87,136.43,480

13650,-0.78,0.2,0.14,23.35,-41.16,105.62,479

13670,-0.83,0.15,0.01,21.57,-3.86,31.89,480

13690,-0.79,-0.03,0.1,31.0,12.93,-6.02,480

13710,-0.74,-0.02,0.03,15.64,27.54,-43.49,480

13730,-0.78,0.06,-0.17,-37.34,24.25,-75.03,480

13750,-0.76,-0.31,0.12,-68.69,36.51,-85.22,480

13770,-1.84,-0.31,0.77,-40.13,38.83,8.94,481

13790,-1.38,-0.26,0.07,-57.63,-10.21,-47.97,485

13810,-0.68,-0.59,-0.2,-62.02,47.94,-102.51,485

13830,-0.64,-0.57,-0.15,-55.96,23.8,-60.5,483

13850,-0.63,-0.62,-0.14,12.34,54.22,-20.45,484

13871,-1.0,-0.5,0.13,33.52,46.83,-28.62,486

13890,-1.01,-0.28,0.11,3.34,38.44,-44.67,485

13911,-0.91,-0.24,-0.19,-22.07,31.21,-22.32,485

13930,-0.82,-0.5,-0.18,-5.63,32.12,-28.1,484

13950,-0.98,-0.53,0.01,28.8,38.02,-22.35,484

13970,-0.95,-0.15,-0.01,24.8,31.79,-19.8,484

13990,-0.85,-0.16,-0.02,0.34,27.3,-25.82,485

14010,-0.94,-0.25,-0.07,-10.91,25.7,-26.49,484

14030,-0.95,-0.28,-0.1,-7.9,23.36,-18.94,484

14050,-0.9,-0.34,-0.04,-7.4,16.99,-18.84,483

14070,-0.8,-0.43,0.02,-4.33,20.78,-17.1,483

14090,-0.92,-0.34,0.02,0.53,22.81,-20.12,483

14110,-0.91,-0.27,-0.01,4.45,23.1,-18.96,483

14130,-0.91,-0.2,0.01,8.48,25.88,-22.53,483

14150,-0.96,-0.07,0.06,13.15,29.38,-36.48,483

14171,-0.98,-0.11,0.03,11.57,31.91,-39.8,484

14190,-0.9,-0.28,0.06,9.93,30.84,-48.7,484

14211,-0.85,-0.36,0.04,20.5,40.92,-58.09,484

14230,-0.88,-0.32,-0.05,29.0,44.4,-61.35,485

14251,-0.89,-0.17,-0.16,18.97,40.4,-50.08,486

14270,-0.91,-0.21,-0.1,6.04,39.7,-61.43,487

14290,-1.02,-0.36,0.02,7.32,45.88,-70.91,488

14310,-1.03,-0.4,0.21,20.83,49.18,-73.72,491

14330,-0.87,-0.31,0.19,28.33,53.45,-90.05,494

14350,-0.98,-0.24,0.23,37.7,68.17,-99.24,496

14370,-1.5,-0.09,0.1,51.84,87.82,-95.65,499

14390,-2.0,-0.38,0.09,62.37,93.56,-112.48,503

14410,-1.61,-0.55,0.04,68.44,63.25,-143.13,504

14430,-0.96,-0.55,-0.12,42.45,48.35,-128.84,504

14450,-0.61,-0.61,-0.34,-8.04,22.87,-111.47,504

14470,-0.48,-0.69,-0.44,-45.98,20.6,-80.47,504

14490,-0.34,-0.76,-0.49,-57.03,-21.85,-29.66,503

14511,-0.14,-0.88,-0.56,-38.69,-17.01,-17.91,503

14530,0.01,-0.87,-0.13,5.86,-21.53,28.69,503

14551,-0.46,-0.76,-0.04,10.21,-64.43,75.71,504

14570,-0.14,-0.69,-0.19,13.9,-95.98,114.77,503

14590,-0.39,-0.54,-0.14,9.43,-102.32,160.76,502

14610,-0.51,-0.58,-0.14,-11.01,-135.95,185.89,502

14630,-0.55,-0.66,-0.19,-28.27,-151.91,198.86,500

14650,-0.74,-0.7,-0.03,-27.15,-166.93,204.38,498

14670,-0.77,-0.61,0.07,-34.14,-175.6,215.85,495

14690,-0.75,-0.54,0.22,-51.29,-175.8,217.63,492

14710,-0.82,-0.54,0.31,-49.96,-156.62,217.81,489

14730,-0.94,-0.46,0.29,-43.66,-145.3,215.32,486

14750,-0.8,-0.56,0.27,-20.54,-104.0,194.58,483

14770,-0.96,-0.35,-0.08,9.52,-86.0,173.43,481

14790,-0.95,0.27,0.14,8.65,-81.75,165.13,479

14811,-0.94,0.42,0.13,-20.33,-50.55,81.19,480

14830,-0.95,0.1,0.25,-28.4,-27.02,23.21,480

14851,-0.65,-0.12,-0.01,-2.31,4.61,-14.8,480

14870,-0.66,-0.12,0.05,-9.06,12.81,-61.56,480

14891,-0.55,-0.12,-0.3,-56.88,35.36,-78.55,479

14910,-0.96,-0.3,0.04,-52.02,61.44,-76.31,478

14930,-2.0,-0.37,0.54,-57.82,6.58,42.69,481

14950,-0.93,-0.38,0.14,-39.09,30.15,-66.98,483

14970,-0.8,-0.65,-0.06,-55.69,43.65,-75.45,484

14990,-0.58,-0.64,-0.13,-6.77,38.63,-8.04,482

15010,-0.87,-0.4,0.1,59.32,60.17,-22.56,484

15030,-1.12,-0.06,-0.03,34.6,53.91,-32.89,486

15050,-1.07,-0.01,-0.1,-8.71,37.35,-32.59,485

15070,-0.82,-0.29,-0.14,-9.78,41.18,-28.0,485

15090,-0.99,-0.4,-0.04,5.76,35.38,-26.92,484

15110,-0.88,-0.3,0.01,8.37,32.72,-19.09,484

15130,-0.92,-0.21,0.07,4.42,31.15,-23.87,484

15151,-0.95,-0.28,0.0,-15.79,20.43,-18.33,485

15170,-0.78,-0.5,-0.01,-22.8,16.44,-11.49,484

15191,-0.86,-0.54,0.06,-7.98,20.35,-18.44,484

15210,-0.92,-0.32,0.0,5.29,19.21,-11.97,485

15230,-0.93,-0.14,0.0,-0.51,15.45,-0.58,484

15250,-0.93,-0.2,0.1,-7.93,13.56,-4.19,484

15270,-0.99,-0.25,0.02,-13.58,9.36,-7.6,484

15290,-0.89,-0.36,-0.12,-15.35,7.41,-7.48,484

15310,-0.9,-0.41,-0.01,-6.54,6.93,-13.02,483

15330,-0.93,-0.32,0.08,2.88,8.4,-5.93,483

15350,-0.91,-0.24,-0.01,-4.25,3.64,-4.38,483

15370,-0.87,-0.33,0.0,-6.95,5.5,-4.68,483

15390,-0.91,-0.25,0.08,3.96,7.01,-1.18,483

15410,-1.0,-0.1,-0.0,0.97,5.54,-6.93,483

15430,-0.94,-0.17,-0.13,-5.58,4.57,-11.85,483

15451,-0.93,-0.27,-0.03,2.28,4.63,-7.02,482

15470,-0.91,-0.17,0.04,8.44,4.41,-10.63,482

15491,-0.89,-0.18,0.01,-1.52,0.28,-14.25,483

15510,-0.9,-0.34,0.11,-7.56,1.67,-12.0,482

15531,-1.0,-0.33,0.09,-10.66,-2.5,-3.84,482

15550,-0.9,-0.27,-0.02,-16.82,-4.4,0.19,482

15570,-0.85,-0.29,-0.05,-21.21,-7.22,-3.35,482

15590,-0.9,-0.38,0.03,-11.76,-2.76,-4.63,481

15610,-0.92,-0.31,0.06,2.05,-1.78,0.62,482

15630,-0.92,-0.25,-0.0,5.78,3.01,-11.35,481

15650,-0.99,-0.2,0.07,0.53,-1.51,-1.45,481

15670,-0.91,-0.27,0.04,-1.14,-0.98,-8.02,481

15690,-0.88,-0.33,0.03,3.14,-0.09,-2.89,481

15710,-0.89,-0.32,0.02,2.92,0.64,1.23,481

15730,-0.9,-0.3,0.02,4.16,0.08,3.86,480

15750,-0.92,-0.21,0.03,7.17,1.36,-4.81,480

15770,-0.96,-0.13,0.03,4.53,0.08,-5.01,480

15791,-0.95,-0.15,0.04,-1.08,-1.48,-12.88,480

15810,-0.91,-0.2,0.06,-1.95,0.34,-8.23,480

15831,-0.91,-0.23,0.05,0.73,1.94,-10.72,480

15850,-0.94,-0.25,0.02,-0.02,4.69,-12.19,480

15870,-0.94,-0.27,0.03,-8.14,-1.57,-7.19,480

15890,-0.86,-0.4,0.03,-8.59,-0.58,-12.72,480

15910,-0.85,-0.43,0.02,-1.96,0.43,0.08,480

15930,-0.89,-0.39,0.03,0.82,0.44,-9.01,480

15950,-0.91,-0.29,-0.0,-0.92,-0.88,-10.65,480

15970,-0.92,-0.32,-0.01,-5.24,-2.99,-2.81,480

15990,-0.87,-0.36,0.01,-4.08,-3.11,4.53,480

16010,-0.88,-0.36,0.05,-0.57,-1.42,-7.12,480

16030,-0.9,-0.31,0.05,2.42,-0.06,-5.06,480

16050,-0.9,-0.3,0.04,3.54,0.55,-0.37,480

16070,-0.91,-0.28,0.02,3.44,1.48,-0.84,480

16091,-0.93,-0.31,0.04,1.57,-0.33,1.06,480

16110,-0.9,-0.32,0.03,0.44,-1.02,-2.0,480

16131,-0.89,-0.3,0.03,0.34,0.17,-0.91,480

16150,-0.9,-0.3,0.03,1.25,-0.17,-6.54,480

16171,-0.9,-0.27,0.02,0.92,-0.03,0.22,480

16190,-0.92,-0.28,0.02,-0.63,-0.29,-7.75,480

16210,-0.91,-0.3,0.05,-0.82,-1.33,-4.82,480

16230,-0.89,-0.31,0.04,-1.0,-0.84,-11.63,480

16250,-0.91,-0.28,0.05,-1.03,0.11,-0.59,480

16270,-0.89,-0.3,0.02,-0.85,1.13,2.74,480

16290,-0.92,-0.33,0.03,-2.31,-0.55,-4.86,480

