Time,AccX,AccY,AccZ,GyroX,GyroY,GyroZ,Capacitance

7266,-0.91,-0.29,0.07,-3.27,-0.63,-7.88,470

7286,-0.9,-0.3,0.08,-6.54,-1.45,3.53,468

7306,-0.89,-0.32,0.1,-6.95,-2.15,3.03,468

7326,-0.91,-0.32,0.08,-9.5,-3.56,-3.5,468

7346,-0.89,-0.36,0.06,-5.96,-1.6,-9.26,468

7366,-0.91,-0.3,0.04,-0.14,0.21,2.08,468

7387,-0.91,-0.24,0.08,-0.53,0.31,0.25,468

7406,-0.91,-0.25,0.11,-5.69,-2.2,-1.35,468

7427,-0.91,-0.27,0.12,-9.96,-2.95,-5.02,468

7446,-0.91,-0.23,0.1,-17.32,-5.97,-0.02,468

7467,-0.91,-0.29,0.04,-23.7,-8.24,2.1,468

7486,-0.91,-0.39,0.03,-10.19,-4.11,2.0,468

7506,-0.91,-0.25,0.06,1.47,0.03,5.13,468

7526,-0.95,-0.18,0.14,0.62,-0.75,-2.34,468

7546,-0.96,-0.13,0.12,-5.08,-0.06,-13.26,469

7566,-0.94,-0.14,0.05,-13.06,-2.15,-13.7,469

7586,-0.89,-0.32,0.08,-13.69,-2.63,-5.44,469

7606,-0.89,-0.39,0.09,-6.3,0.82,-27.1,469

7626,-0.89,-0.38,0.07,-2.62,0.56,-18.53,470

7646,-0.89,-0.33,0.08,-1.47,-0.56,-17.62,470

7666,-0.9,-0.32,0.07,0.79,1.16,-22.09,470

7686,-0.89,-0.29,0.07,2.99,2.15,-23.84,471

7706,-0.88,-0.31,0.09,6.5,4.18,-19.27,471

7727,-0.91,-0.32,0.11,15.32,9.01,-30.52,472

7746,-0.92,-0.33,0.15,21.18,11.79,-32.88,472

7767,-0.92,-0.28,0.08,21.2,12.17,-24.09,473

7786,-0.94,-0.21,0.08,14.24,9.04,-28.16,473

7806,-0.94,-0.24,0.13,15.55,14.32,-37.64,474

7826,-0.94,-0.31,0.22,22.48,14.87,-47.19,475

7846,-0.9,-0.26,0.22,33.38,30.87,-50.12,478

7866,-1.03,-0.14,0.23,28.01,27.71,-36.5,479

7886,-0.97,-0.33,0.08,13.75,22.14,-51.64,481

7906,-0.99,-0.43,0.11,10.53,16.52,-44.46,481

7926,-0.94,-0.43,0.2,10.39,-1.16,-9.02,481

7946,-0.92,-0.32,0.16,-0.74,-14.64,14.63,481

7966,-0.92,-0.32,0.11,-19.24,-32.86,31.74,481

7986,-0.86,-0.46,0.13,-23.38,-43.21,52.89,482

8006,-0.83,-0.55,0.15,-10.13,-44.41,63.56,482

8027,-0.78,-0.57,0.16,9.61,-34.78,78.17,482

8046,-0.82,-0.45,0.1,22.1,-30.72,91.13,482

8067,-0.85,-0.35,0.13,23.29,-32.49,103.92,481

8086,-0.8,-0.44,0.15,27.78,-29.42,104.4,481

8107,-0.75,-0.43,0.11,39.75,-15.85,107.44,480

8126,-0.83,-0.32,0.03,43.81,-12.55,105.7,479

8146,-0.88,-0.19,0.13,41.89,-10.35,117.65,478

8166,-0.87,-0.13,0.11,30.62,-17.22,95.21,478

8186,-0.9,-0.14,0.13,31.87,-5.33,74.43,477

8206,-0.86,-0.16,0.16,36.6,-0.02,46.22,477

8226,-0.85,0.0,0.12,28.59,4.17,50.67,477

8246,-0.94,0.08,0.16,10.97,2.84,14.46,478

8266,-0.9,-0.06,0.2,-7.08,1.27,-3.1,478

8286,-0.88,-0.07,0.17,-20.11,1.28,-18.54,478

8306,-0.9,-0.14,0.11,-40.54,-3.54,-27.2,478

8326,-0.85,-0.15,0.12,-57.23,-7.21,-36.61,478

8346,-0.87,-0.21,0.11,-63.78,0.98,-45.47,478

8367,-0.99,-0.34,0.22,-50.08,8.34,-41.77,478

8386,-1.25,-0.23,0.44,-22.11,28.2,-20.92,479

8407,-1.16,-0.11,0.27,-29.46,-3.95,-36.31,480

8426,-0.79,-0.26,0.07,-37.81,14.6,-46.39,479

8446,-0.77,-0.3,-0.1,-37.75,16.0,-40.91,478

8466,-0.89,-0.36,-0.11,-25.58,27.24,-41.34,477

8486,-0.9,-0.42,0.12,-22.16,25.5,-28.78,477

8506,-0.83,-0.35,0.32,-25.32,22.92,-22.64,478

8526,-0.9,-0.19,0.21,-37.52,21.83,-24.3,478

8546,-0.92,-0.27,0.0,-39.66,17.1,-25.55,477

8566,-0.87,-0.4,-0.04,-16.02,25.27,-17.04,477

8586,-0.94,-0.27,0.04,3.23,31.45,-24.16,477

8606,-0.99,-0.1,0.04,-8.6,24.44,-26.12,477

8626,-0.87,-0.22,-0.03,-19.53,20.96,-28.34,476

8646,-0.93,-0.34,-0.08,-10.54,27.54,-29.26,476

8667,-0.91,-0.33,-0.07,-4.33,22.47,-33.33,476

8686,-0.87,-0.37,0.02,-7.69,19.92,-25.56,476

8707,-0.85,-0.41,0.05,-18.63,14.17,-27.56,476

8726,-0.82,-0.51,-0.03,-15.96,16.11,-20.13,476

8747,-0.87,-0.46,-0.05,-6.66,17.1,-16.73,476

8766,-0.88,-0.33,0.01,-3.32,15.04,-16.16,475

8786,-0.94,-0.27,0.01,-4.68,14.99,-21.02,475

8806,-0.9,-0.34,0.01,-10.77,8.6,-23.61,475

8826,-0.82,-0.44,0.04,-2.37,14.81,-21.38,475

8846,-0.85,-0.38,0.07,14.85,27.08,-21.73,475

8866,-0.91,-0.27,0.03,15.08,24.89,-15.84,475

8886,-0.91,-0.18,-0.06,1.58,24.14,-28.95,474

8906,-0.94,-0.22,-0.08,-0.83,21.6,-26.32,473

8926,-0.91,-0.21,-0.05,9.14,26.11,-40.21,473

8946,-0.95,-0.1,-0.01,14.28,29.77,-49.84,474

8966,-0.95,-0.03,0.0,13.52,32.82,-57.93,475

8986,-0.93,-0.06,-0.12,10.04,37.07,-64.94,476

9007,-1.09,-0.31,-0.1,9.41,46.53,-90.61,477

9026,-1.13,-0.76,0.33,41.63,37.68,-121.44,480

9047,-1.23,-0.89,0.49,116.79,95.3,-138.8,486

9066,-1.52,-0.67,0.68,173.26,92.76,-140.32,488

9086,-1.54,-0.23,0.52,171.2,79.53,-135.67,492

9106,-1.3,0.04,0.28,97.58,63.16,-130.04,491

9126,-0.79,-0.12,-0.13,-23.0,-1.69,-92.87,488

9146,-0.33,-0.56,-0.57,-98.98,4.78,-82.88,486

9166,-0.5,-1.19,-0.27,-63.61,19.69,-87.93,486

9186,-0.81,-1.28,-0.06,25.09,6.58,-9.49,487

9206,-0.35,-0.86,-0.18,84.48,-17.59,47.07,488

9226,-0.24,-0.51,-0.11,83.7,-17.88,86.88,487

9246,-0.45,-0.41,-0.23,47.87,-39.98,135.01,486

9266,-0.52,-0.51,-0.17,10.88,-63.66,169.54,485

9286,-0.59,-0.65,-0.13,-4.16,-89.74,193.21,484

9307,-0.62,-0.68,-0.02,-7.32,-102.72,204.84,484

9326,-0.75,-0.59,0.06,-30.5,-117.07,208.43,483

9347,-0.7,-0.54,0.05,-70.57,-122.75,216.35,481

9366,-0.61,-0.62,0.11,-76.94,-107.16,202.58,479

9387,-0.65,-0.77,0.02,-58.98,-98.89,184.82,476

9406,-0.76,-0.63,0.08,-19.66,-84.95,205.54,474

9426,-0.8,-0.53,0.04,13.43,-53.22,166.74,473

9446,-0.92,-0.51,0.11,43.43,-24.34,110.84,472

9466,-0.79,-0.19,0.07,64.79,-2.61,117.79,471

9486,-0.91,0.05,0.01,61.55,14.31,76.73,471

9506,-1.07,0.07,0.19,36.19,13.82,27.64,471

9526,-0.94,0.09,0.17,14.95,13.73,-2.83,471

9546,-0.88,-0.02,0.02,-8.91,18.55,-55.77,471

9566,-0.98,-0.01,0.06,-51.92,7.22,-66.05,472

9586,-0.8,-0.31,0.21,-87.61,-0.09,-78.74,473

9606,-1.27,-0.31,0.51,-60.85,27.89,-19.88,474

9626,-1.22,-0.19,0.23,-67.43,-20.27,-25.89,476

9647,-0.66,-0.43,0.06,-82.82,4.02,-58.47,476

9666,-0.69,-0.61,0.09,-59.72,16.17,-47.04,475

9687,-0.73,-0.64,0.03,11.63,42.0,-24.85,476

9706,-0.94,-0.21,0.12,29.9,49.94,-28.97,476

9726,-1.02,-0.08,0.14,9.32,42.14,-27.56,475

9746,-1.0,-0.15,-0.08,-7.05,35.92,-36.99,475

9766,-0.86,-0.3,-0.1,-14.3,29.68,-29.09,474

9786,-0.93,-0.35,-0.04,-9.84,33.14,-48.63,474

9806,-0.94,-0.23,-0.04,-14.08,24.99,-40.19,475

9826,-0.9,-0.34,-0.04,-24.31,20.21,-35.35,475

9846,-0.81,-0.46,0.04,-26.47,17.19,-32.92,475

9866,-0.89,-0.41,0.01,-18.85,21.56,-31.06,475

9886,-0.89,-0.29,-0.0,-19.03,18.87,-23.95,475

9906,-0.87,-0.28,0.02,-21.08,18.05,-28.23,475

9926,-0.86,-0.3,0.01,-17.95,21.11,-35.83,475

9947,-0.92,-0.29,0.01,-14.36,23.65,-29.52,475

9966,-0.87,-0.44,-0.07,-14.86,17.13,-28.78,475

9987,-0.82,-0.5,-0.02,-8.76,15.6,-44.8,475

10006,-0.84,-0.48,0.08,-1.88,17.63,-34.28,475

10027,-0.87,-0.36,0.11,6.47,22.87,-34.47,475

10046,-0.85,-0.18,0.06,12.48,25.77,-36.24,475

10066,-0.96,-0.09,-0.08,1.84,31.07,-34.18,473

10086,-0.99,-0.25,-0.09,-6.56,21.01,-51.35,472

10106,-0.85,-0.34,-0.06,-3.78,20.92,-54.58,473

10126,-0.8,-0.34,0.04,6.08,30.87,-59.55,475

10146,-0.84,-0.23,0.1,20.25,43.04,-66.67,477

10166,-0.86,-0.19,-0.04,30.37,57.47,-72.43,477

10186,-1.13,-0.43,0.19,47.72,64.26,-104.95,479

10206,-1.46,-0.64,0.31,87.84,77.91,-144.87,484

10226,-1.89,-0.57,0.64,156.56,98.18,-143.08,489

10246,-1.74,-0.29,0.52,185.58,88.21,-169.5,492

10266,-1.34,-0.06,0.07,129.35,75.98,-148.23,492

10287,-0.97,-0.26,-0.03,14.34,21.27,-110.76,490

10306,-0.32,-0.46,-0.47,-79.72,0.98,-85.37,487

10327,-0.17,-1.02,-0.35,-97.03,32.73,-66.57,486

10346,-0.52,-1.3,-0.1,-27.98,43.65,-53.33,487

10366,-0.47,-1.06,-0.16,44.3,0.12,39.97,488

10386,-0.27,-0.58,-0.06,65.02,-3.85,91.06,488

10406,-0.3,-0.55,-0.13,39.08,-39.08,128.36,487

10426,-0.29,-0.61,-0.09,24.7,-54.18,166.92,486

10446,-0.42,-0.73,-0.14,9.69,-79.94,192.24,485

10466,-0.48,-0.71,-0.06,-5.63,-94.93,218.17,484

10486,-0.65,-0.75,0.07,-6.21,-105.54,231.51,484

10506,-0.72,-0.63,0.16,-25.29,-115.66,238.31,483

10526,-0.68,-0.53,0.11,-61.46,-122.32,232.38,482

10546,-0.7,-0.68,0.13,-68.16,-108.15,213.29,480

10566,-0.81,-0.66,0.17,-41.53,-98.95,193.98,477

10587,-0.86,-0.49,-0.05,-20.21,-90.14,183.32,475

10606,-1.12,-0.25,0.17,-12.24,-59.34,150.07,474

10627,-0.82,-0.12,0.14,-16.22,-50.6,86.04,472

10646,-0.82,-0.17,-0.11,-9.15,-14.99,35.41,473

10667,-0.85,-0.2,0.03,-1.3,1.16,-2.27,473

10686,-0.72,-0.34,0.04,-1.24,13.07,-49.63,473

10706,-0.56,-0.49,-0.23,-9.88,42.67,-99.72,475

10726,-0.87,-0.55,0.31,9.73,56.87,-88.4,474

10746,-1.73,-0.12,0.68,27.5,53.86,12.65,477

10766,-1.11,0.01,0.03,-23.12,0.2,-35.22,480

10786,-0.64,-0.55,-0.06,-52.65,32.11,-79.61,477

10806,-0.68,-0.72,-0.05,-30.5,30.84,-34.89,475

10826,-0.94,-0.51,-0.09,21.6,44.93,-21.36,475

10846,-0.97,-0.2,0.16,14.92,36.12,-44.96,477

10866,-0.89,-0.16,0.18,-9.95,30.38,-37.07,476

10886,-0.89,-0.33,-0.03,-16.65,32.49,-23.68,476

10906,-0.93,-0.45,-0.11,2.41,33.66,-35.46,478

10927,-0.92,-0.27,-0.05,14.99,35.24,-28.3,476

10946,-0.91,-0.2,0.02,5.24,29.59,-31.48,476

10967,-0.91,-0.33,0.07,-4.68,26.85,-32.44,477

10986,-0.85,-0.39,-0.01,-3.52,25.79,-36.57,476

11006,-0.87,-0.38,-0.06,5.66,29.97,-44.17,476

11026,-0.98,-0.27,-0.03,9.52,28.38,-34.3,475

11046,-0.88,-0.19,-0.03,-2.37,18.99,-26.5,476

11066,-0.87,-0.2,-0.06,-19.12,18.61,-30.63,476

11086,-0.92,-0.29,-0.05,-26.77,16.2,-43.21,475

11106,-0.88,-0.3,-0.04,-25.88,11.65,-43.11,475

11126,-0.88,-0.31,0.01,-21.56,13.34,-39.4,476

11146,-0.87,-0.31,0.02,-23.03,14.7,-53.93,476

11166,-0.85,-0.37,-0.0,-20.57,16.31,-51.92,476

11186,-0.84,-0.43,-0.0,-13.73,18.49,-48.05,476

11206,-0.84,-0.43,-0.04,-9.32,22.66,-49.06,477

11227,-0.84,-0.51,-0.01,-4.92,24.21,-58.74,477

11246,-0.86,-0.55,-0.03,8.07,34.84,-74.96,478

11267,-0.94,-0.53,0.01,22.13,44.6,-72.98,480

11286,-1.06,-0.43,0.07,36.88,55.6,-60.6,482

11307,-1.16,-0.31,0.19,52.08,62.85,-87.33,484

11326,-1.49,-0.2,0.26,70.12,81.97,-102.36,486

11346,-1.99,-0.42,0.64,105.35,86.96,-127.13,490

11366,-1.83,-0.49,0.82,159.09,81.31,-169.11,493

11386,-1.29,-0.17,0.24,125.9,75.08,-135.66,493

11406,-0.81,-0.31,-0.35,10.45,-3.19,-90.02,489

11426,-0.23,-0.48,-0.52,-101.0,-30.61,-86.27,485

11446,-0.17,-0.9,-0.58,-104.91,-22.76,-74.13,485

11466,-0.33,-1.09,-0.39,-37.76,-22.09,-26.04,486

11486,-0.23,-1.06,-0.25,27.46,-37.62,39.14,486

11506,-0.25,-0.61,-0.07,58.63,-41.47,95.28,486

11526,-0.2,-0.59,-0.13,56.62,-70.99,144.12,485

11546,-0.25,-0.64,-0.14,50.41,-68.92,180.59,485

11567,-0.5,-0.68,-0.12,35.96,-77.45,200.21,484

11586,-0.53,-0.6,-0.04,2.45,-97.16,218.89,483

11607,-0.66,-0.54,0.07,-39.08,-117.3,243.0,482

11626,-0.74,-0.59,0.06,-61.35,-121.71,240.94,481

11646,-0.68,-0.67,0.03,-88.28,-127.3,231.66,478

11666,-0.78,-0.66,0.03,-75.79,-125.88,208.12,475

11686,-0.77,-0.7,0.15,-20.1,-92.67,205.0,473

11706,-0.86,-0.69,-0.06,25.86,-63.13,172.55,472

11726,-0.99,-0.22,0.07,56.01,-29.37,153.93,472

11746,-0.82,0.04,0.07,52.59,0.23,96.76,471

11766,-0.92,-0.01,0.04,44.68,17.74,25.15,471

11786,-0.83,0.08,0.07,28.28,23.91,-20.9,470

11806,-0.87,0.03,-0.05,-12.48,30.21,-77.89,471

11826,-0.98,-0.24,0.25,-61.32,13.01,-99.9,471

11846,-1.32,-0.42,0.99,-40.66,56.08,-41.28,474

11867,-1.16,-0.41,0.15,-37.75,-13.63,-31.94,476

11886,-0.56,-0.57,-0.23,-30.59,38.38,-92.63,476

11907,-0.77,-0.53,-0.06,-28.8,28.17,-52.8,474

11926,-0.78,-0.38,-0.03,4.57,36.89,-14.05,475

11947,-1.03,-0.28,0.1,-9.44,30.61,-35.82,478

11966,-0.96,-0.36,0.06,-24.97,24.79,-45.04,477

11986,-0.91,-0.34,-0.09,-18.27,28.82,-32.0,476

12006,-0.89,-0.3,-0.09,-7.79,26.93,-39.01,477

12026,-0.96,-0.24,-0.01,-0.43,32.76,-36.72,476

12046,-1.0,-0.05,-0.03,-16.77,20.73,-42.92,476

12066,-0.88,-0.18,-0.05,-44.71,7.04,-28.86,476

12086,-0.79,-0.51,0.02,-39.3,13.48,-42.37,476

12106,-0.88,-0.49,0.03,-17.98,25.51,-29.44,476

12126,-0.88,-0.32,-0.05,-10.68,24.99,-33.14,476

12146,-0.9,-0.33,0.03,-13.81,20.81,-26.9,476

12166,-0.89,-0.31,0.04,-15.29,17.14,-30.4,475

12186,-0.88,-0.31,0.02,-11.38,21.83,-34.08,476

12207,-0.89,-0.29,0.04,-6.8,22.31,-35.7,476

12226,-0.87,-0.29,0.07,-7.15,21.18,-40.15,476

12247,-0.8,-0.3,0.08,1.18,30.32,-36.79,477

12266,-0.93,-0.29,0.01,12.08,34.73,-50.84,477

12286,-0.88,-0.33,-0.05,3.84,25.37,-42.29,477

12306,-0.85,-0.45,-0.07,1.87,27.22,-54.65,476

12326,-0.86,-0.43,-0.04,15.64,33.92,-56.29,477

12346,-0.87,-0.29,-0.04,26.92,40.26,-59.94,478

12366,-0.92,-0.35,0.18,44.12,45.34,-82.82,479

12386,-1.13,-0.38,0.23,87.37,80.96,-115.31,483

12406,-1.91,-0.49,0.42,145.18,104.2,-137.48,488

12426,-2.0,-0.33,0.65,182.15,88.98,-157.0,492

12446,-1.53,0.14,0.37,161.78,79.85,-173.26,492

12466,-1.42,0.08,0.18,76.42,50.23,-122.25,490

12486,-0.75,-0.25,-0.36,-61.3,-29.94,-82.01,487

12507,-0.11,-0.64,-0.62,-138.48,-13.28,-76.14,484

12526,-0.24,-1.12,-0.37,-110.79,6.93,-58.36,484

12547,-0.5,-1.28,-0.15,-23.43,-12.35,-2.42,486

12566,-0.12,-0.91,-0.09,41.86,-35.39,58.24,486

12587,-0.11,-0.62,-0.03,56.85,-43.4,118.08,486

12606,-0.13,-0.63,-0.14,46.15,-66.96,180.6,485

12626,-0.32,-0.73,-0.09,45.5,-69.83,208.54,485

12646,-0.52,-0.74,-0.04,29.06,-90.23,227.07,484

12666,-0.59,-0.59,-0.01,-12.85,-107.25,262.18,483

12686,-0.72,-0.53,0.04,-36.37,-110.99,264.61,481

12706,-0.81,-0.54,0.15,-73.01,-114.55,247.19,479

12726,-0.9,-0.63,0.11,-68.5,-118.44,208.2,477

12746,-0.84,-0.63,0.06,-28.22,-90.98,201.73,475

12766,-0.88,-0.54,0.08,13.64,-57.74,155.06,474

12786,-0.85,-0.14,0.02,32.97,-26.79,130.28,473

12806,-0.91,-0.05,-0.04,45.38,4.89,52.68,473

12826,-0.88,-0.08,0.05,38.22,16.46,13.3,473

12847,-0.83,0.01,0.05,10.51,20.24,-42.29,473

12866,-0.86,-0.06,-0.07,-37.09,16.34,-80.06,473

12887,-0.91,-0.29,0.34,-72.79,16.12,-88.95,473

12906,-1.71,-0.19,0.74,-66.69,29.5,-12.89,475

12926,-0.99,-0.35,-0.05,-96.68,-39.45,-55.63,479

12946,-0.48,-0.81,-0.18,-73.67,22.14,-86.85,476

12966,-0.55,-0.79,0.01,-25.14,40.53,-33.14,474

12986,-0.92,-0.48,0.06,32.85,54.18,-15.35,476

13006,-1.0,-0.12,0.18,17.63,41.97,-30.47,477

13026,-0.97,-0.06,0.05,-21.52,38.53,-34.9,476

13046,-0.89,-0.38,-0.18,-27.49,30.64,-36.84,475

13066,-0.85,-0.57,-0.07,-1.66,33.91,-28.39,476

13086,-0.96,-0.33,0.09,13.63,41.71,-30.88,476

13106,-0.93,-0.06,0.04,-6.56,28.41,-36.97,475

13126,-0.95,-0.19,-0.01,-23.09,23.3,-32.73,475

13147,-0.87,-0.31,-0.0,-17.56,23.65,-39.54,476

13166,-0.88,-0.28,0.0,-5.63,31.19,-37.79,476

13187,-0.96,-0.24,-0.06,-9.24,25.42,-33.01,476

13206,-0.78,-0.37,-0.07,-15.52,20.69,-40.92,475

13227,-0.82,-0.48,-0.01,-11.26,26.49,-49.58,475

13246,-0.92,-0.44,0.02,-11.38,20.41,-41.66,475

13266,-0.85,-0.39,0.01,-18.37,15.74,-45.86,476

13286,-0.8,-0.35,0.03,-12.56,21.04,-30.46,476

13306,-0.94,-0.23,0.02,1.93,32.63,-40.72,476

13326,-0.97,-0.22,0.02,10.21,30.79,-50.83,477

13346,-0.88,-0.25,-0.09,9.0,34.41,-55.42,477

13366,-0.92,-0.27,-0.13,6.07,38.14,-57.45,476

13386,-0.99,-0.4,-0.06,9.67,43.19,-70.6,478

13406,-1.06,-0.48,0.09,23.9,47.28,-82.66,479

13426,-1.04,-0.54,0.33,42.36,43.98,-101.74,482

13446,-1.26,-0.28,0.32,60.22,68.96,-99.56,485

13466,-1.86,-0.42,0.65,81.35,79.08,-126.89,489

13487,-1.9,-0.69,0.46,132.44,89.34,-184.45,492

13506,-1.13,-0.25,0.36,123.66,60.9,-140.12,491

13527,-0.77,-0.44,-0.0,59.55,36.32,-107.78,489

13546,-0.43,-0.67,-0.4,-22.63,22.38,-94.63,486

13566,-0.5,-0.61,-0.42,-51.76,5.47,-63.23,485

13586,-0.41,-0.71,-0.39,-44.66,-22.87,-28.58,484

13606,-0.2,-0.92,-0.48,-0.8,-18.56,10.48,485

13626,-0.16,-0.69,-0.06,39.64,-25.37,68.92,485

13646,-0.21,-0.69,-0.11,48.7,-60.89,136.39,486

13666,-0.02,-0.61,-0.19,44.68,-70.84,164.72,485

13686,-0.36,-0.74,-0.09,38.94,-67.47,209.63,485

13706,-0.57,-0.81,-0.08,36.24,-93.21,214.19,484

13726,-0.6,-0.65,0.06,1.06,-109.45,246.46,483

13746,-0.62,-0.61,0.15,-18.43,-114.76,253.69,481

13766,-0.68,-0.66,0.18,-48.11,-119.97,243.84,479

13787,-0.86,-0.6,0.28,-49.87,-108.32,230.16,476

13806,-0.95,-0.51,0.17,-25.01,-93.68,216.65,474

13827,-1.05,-0.46,0.12,2.89,-67.54,176.78,473

13846,-1.05,-0.18,0.11,29.11,-40.43,139.99,472

13867,-0.91,0.03,0.13,35.86,-14.9,61.6,472

13886,-0.82,0.21,0.0,21.12,5.94,13.06,471

13906,-0.79,0.09,-0.06,-17.01,6.89,-46.03,471

13926,-0.66,-0.19,-0.23,-57.03,14.89,-89.23,471

13946,-0.82,-0.63,0.18,-35.3,41.5,-96.25,471

13966,-1.72,-0.48,0.61,16.3,46.79,33.58,473

13986,-1.14,0.1,0.14,-7.21,10.34,-46.72,476

14006,-0.86,-0.23,0.07,-90.56,4.03,-81.64,474

14026,-0.47,-0.69,-0.02,-64.94,23.76,-45.0,473

14046,-0.76,-0.75,-0.03,9.66,49.89,-32.49,476

14066,-0.97,-0.29,0.22,22.63,43.34,-37.64,478

14086,-0.9,-0.21,0.15,14.94,47.95,-33.64,476

14106,-1.06,-0.11,-0.16,0.82,45.62,-38.41,476

14127,-0.88,-0.27,-0.27,-13.23,27.76,-38.77,476

14146,-0.83,-0.56,0.04,-0.33,37.3,-42.48,475

14167,-0.92,-0.52,0.09,11.34,34.76,-35.82,476

14186,-0.86,-0.35,0.01,4.57,30.87,-38.57,477

14206,-0.88,-0.37,0.01,3.2,28.56,-35.68,476

14226,-0.87,-0.46,-0.04,8.77,26.81,-23.88,476

14246,-0.88,-0.39,-0.01,13.72,25.48,-41.12,476

14266,-0.9,-0.24,0.0,9.79,23.04,-25.65,476

14286,-0.9,-0.13,-0.05,-6.08,18.17,-34.95,476

14306,-0.91,-0.15,0.0,-17.81,12.78,-37.15,475

14326,-0.94,-0.17,0.07,-18.42,17.8,-45.8,477

14346,-0.94,-0.09,-0.01,-23.55,13.34,-43.46,477

14366,-0.92,-0.09,-0.03,-34.02,11.47,-47.58,477

14386,-0.92,-0.25,0.02,-32.36,14.11,-60.79,477

14406,-0.92,-0.27,0.07,-14.77,23.92,-71.31,479

14427,-0.87,-0.28,0.17,8.02,36.02,-82.69,481

14446,-0.91,-0.3,0.11,37.96,66.2,-104.68,482

14467,-1.64,-0.39,0.37,80.15,86.95,-112.09,486

14486,-2.0,-0.84,0.69,128.04,82.38,-145.1,491

14507,-1.15,-0.21,0.37,124.94,70.18,-167.07,491

14526,-1.08,-0.31,0.2,66.3,57.45,-114.36,490

14546,-0.75,-0.65,-0.37,-34.31,2.84,-86.25,487

14566,-0.36,-0.58,-0.53,-83.35,-10.56,-52.07,484

14586,-0.48,-0.81,-0.24,-65.56,-14.81,-20.43,484

14606,-0.4,-1.01,-0.01,-9.95,-47.45,31.16,485

14626,-0.16,-0.76,0.01,28.57,-61.62,94.48,485

14646,-0.11,-0.52,-0.18,31.03,-76.89,153.67,485

14666,-0.4,-0.51,-0.13,11.37,-102.58,197.12,484

14686,-0.49,-0.63,-0.16,-1.17,-127.08,219.31,483

14706,-0.65,-0.68,-0.0,-16.45,-142.72,234.49,482

14726,-0.88,-0.51,0.12,-49.87,-147.82,263.77,481

14746,-0.94,-0.37,0.37,-89.73,-149.5,254.17,478

14767,-0.71,-0.47,0.23,-95.46,-131.39,210.36,476

14786,-0.71,-0.71,0.19,-42.08,-91.8,179.01,474

14807,-0.85,-0.41,0.09,10.02,-64.23,172.54,473

14826,-1.06,-0.09,-0.01,31.21,-30.76,131.03,472

14846,-0.99,0.07,0.15,12.01,-33.1,80.19,470

14866,-0.69,0.15,0.03,1.89,-7.19,43.35,470

14886,-0.89,0.18,0.01,3.86,15.19,-6.46,470

14906,-0.89,0.05,-0.08,-19.81,20.61,-58.33,470

14926,-0.82,-0.48,0.11,-36.3,32.85,-105.39,470

14946,-1.47,-0.32,0.83,-4.59,60.53,-8.1,471

14966,-1.47,0.18,0.28,-46.37,-10.78,-16.12,474

14986,-0.9,-0.13,-0.18,-94.51,1.97,-78.43,472

15006,-0.83,-0.5,-0.18,-89.66,8.69,-62.22,472

15026,-0.52,-0.78,-0.04,-9.34,28.11,-24.99,471

15046,-0.75,-0.51,0.35,33.09,55.3,-20.74,477

15067,-1.06,-0.11,0.38,8.3,45.98,-20.27,476

15086,-0.96,-0.15,0.03,-29.98,29.19,-24.94,474

15107,-0.9,-0.57,-0.28,-20.07,36.6,-15.65,474

15126,-0.93,-0.5,-0.11,14.07,35.79,-13.36,474

15147,-1.0,-0.15,0.06,24.22,36.78,-17.11,475

15166,-0.94,-0.14,0.09,3.46,25.86,-29.67,475

15186,-0.88,-0.35,0.11,-4.25,20.81,-26.11,474

15206,-0.92,-0.27,-0.04,-6.72,19.31,-21.04,475

15226,-0.88,-0.43,-0.16,-19.49,8.05,-9.51,474

15246,-0.77,-0.61,-0.06,-17.03,5.56,-9.81,473

15266,-0.87,-0.54,0.1,-3.06,7.4,-10.89,475

15286,-0.88,-0.46,0.13,8.31,9.05,-1.24,476

15306,-0.9,-0.27,0.1,15.95,11.54,5.85,476

15326,-1.0,-0.1,0.08,16.71,12.87,-2.9,475

15346,-0.99,0.01,0.06,5.37,7.44,-11.21,475

15366,-0.92,-0.03,0.04,-8.07,5.07,-8.99,475

15386,-0.96,-0.13,-0.04,-12.31,6.15,-19.4,475

15407,-0.88,-0.12,-0.22,-8.08,7.25,-13.6,475

15426,-1.22,-0.23,-0.08,-23.78,0.35,-23.04,473

15447,-0.79,-0.52,0.21,-33.35,-33.22,-16.85,474

15466,-0.63,-0.68,0.24,-0.76,6.56,-21.54,476

15486,-0.95,-0.49,0.06,21.86,5.3,5.48,476

15506,-0.8,-0.37,-0.03,15.28,2.52,-2.4,474

15526,-0.85,-0.31,0.03,7.29,-1.34,5.64,474

15546,-0.87,-0.22,0.1,10.86,4.4,5.67,474

15566,-0.98,-0.13,0.12,14.02,5.53,1.19,475

15586,-0.97,-0.1,0.09,10.21,2.05,0.72,474

15606,-0.96,-0.1,0.07,5.69,3.83,-2.93,474

15626,-1.02,-0.06,0.02,-3.69,1.24,-3.57,474

15646,-0.94,-0.12,0.06,-14.51,-6.73,-7.31,473

15666,-0.87,-0.3,0.1,-15.09,-4.2,-6.37,473

15686,-0.87,-0.35,0.07,-4.13,1.07,-10.27,474

15707,-0.91,-0.3,-0.0,-0.36,2.55,-15.91,475

15726,-0.88,-0.31,0.02,-4.22,-1.33,-1.71,474

15747,-0.9,-0.37,0.04,-3.26,-0.53,-15.09,474

15766,-0.9,-0.35,0.08,0.19,-0.76,-13.69,474

15787,-0.88,-0.3,0.08,1.52,-1.24,-4.15,474

15806,-0.89,-0.27,0.07,2.04,0.75,2.82,474

15826,-0.96,-0.26,0.07,3.06,0.23,-15.6,474

15846,-0.95,-0.26,0.09,-0.04,-4.79,-4.62,475

15866,-0.88,-0.3,0.05,-0.34,-1.66,-9.2,475

15886,-0.91,-0.3,0.04,0.21,1.54,-10.71,474

15906,-0.91,-0.29,0.05,-1.49,-0.76,-2.61,475

15926,-0.88,-0.35,0.09,0.85,0.35,-7.18,475

15946,-0.9,-0.35,0.09,3.6,1.01,-0.2,475

15966,-0.88,-0.3,0.07,3.46,3.24,-7.03,475

15986,-0.93,-0.3,0.05,-0.72,0.53,-5.37,475

16006,-0.92,-0.31,0.05,-2.45,-1.97,4.81,475

16026,-0.89,-0.34,0.09,0.51,-1.94,-4.65,475

16047,-0.9,-0.32,0.08,4.73,0.23,-9.79,475

16066,-0.89,-0.3,0.06,3.92,2.18,-7.94,475

16087,-0.91,-0.28,0.05,0.82,1.74,1.62,475

16106,-0.9,-0.31,0.08,-1.49,-0.2,3.2,476

16126,-0.89,-0.34,0.09,-1.11,-0.96,-5.05,476

16146,-0.9,-0.34,0.08,2.02,-0.03,-4.54,476

16166,-0.9,-0.32,0.04,1.08,0.44,-9.11,476

16186,-0.87,-0.34,0.03,-0.57,0.47,-9.86,476

16206,-0.89,-0.38,0.07,1.24,0.21,-2.1,476

16226,-0.87,-0.36,0.08,1.55,0.61,5.35,475

16246,-0.89,-0.35,0.07,2.31,1.48,-6.2,476

16266,-0.91,-0.32,0.05,2.57,2.82,-1.33,476

