Time,AccX,AccY,AccZ,GyroX,GyroY,GyroZ,Capacitance
7266,-0.97,-0.24,0.32,-6.22,18.35,-22.58,501
7286,-1.07,-0.03,0.4,1.18,21.97,-30.35,499
7306,-1.11,-0.0,0.29,-19.43,8.6,-32.0,499
7326,-0.87,-0.23,0.09,-25.79,6.53,-33.8,498
7346,-0.91,-0.18,-0.0,-16.68,18.05,-31.07,498
7366,-0.98,-0.05,0.09,-30.73,11.33,-24.32,498
7387,-0.96,-0.15,0.18,-47.76,6.49,-28.67,498
7406,-0.85,-0.34,0.19,-42.57,6.58,-29.76,498
7427,-0.81,-0.39,0.13,-17.67,18.99,-33.25,498
7446,-0.94,-0.31,0.03,-4.66,25.73,-32.23,498
7467,-1.01,-0.09,-0.01,-20.88,21.5,-22.9,497
7486,-0.84,-0.14,0.14,-44.44,5.5,-21.8,497
7506,-0.8,-0.45,0.24,-37.76,19.33,-27.48,497
7526,-0.93,-0.37,0.1,-21.49,25.34,-22.53,498
7546,-0.9,-0.38,-0.07,-17.9,21.1,-23.51,497
7566,-0.85,-0.45,-0.08,-16.25,24.05,-21.04,497
7586,-0.88,-0.5,0.09,-15.75,18.02,-17.62,497
7606,-0.85,-0.56,0.09,-12.1,15.68,-19.21,497
7626,-0.85,-0.54,0.03,-3.32,17.66,-13.95,497
7646,-0.86,-0.45,0.02,6.14,19.27,-10.38,497
7666,-0.9,-0.27,0.03,7.49,20.84,-9.31,496
7686,-0.94,-0.18,0.05,5.34,20.28,-10.86,496
7706,-0.93,-0.21,-0.0,2.47,17.24,-14.95,496
7727,-0.91,-0.22,0.01,5.98,20.76,-18.32,496
7746,-0.95,-0.15,0.04,5.27,19.63,-19.6,496
7767,-0.95,-0.19,0.01,-7.18,13.01,-26.44,496
7786,-0.91,-0.32,-0.05,-10.85,10.63,-27.34,496
7806,-0.89,-0.37,0.01,-4.05,12.81,-29.42,496
7826,-0.89,-0.32,0.02,-0.34,13.7,-30.49,496
7846,-0.85,-0.39,0.03,-3.29,12.2,-31.21,496
7866,-0.84,-0.4,0.02,-6.21,14.21,-32.47,496
7886,-0.9,-0.41,-0.05,-5.76,14.02,-31.21,495
7906,-0.87,-0.47,-0.07,0.83,14.98,-33.07,495
7926,-0.85,-0.54,-0.03,10.54,19.07,-34.63,495
7946,-0.9,-0.5,0.12,20.13,18.21,-34.61,495
7966,-0.81,-0.41,0.0,27.64,25.76,-35.02,495
7986,-0.86,-0.37,-0.04,20.86,24.99,-34.41,495
8006,-0.87,-0.45,0.02,19.29,22.9,-38.86,496
8027,-0.85,-0.49,0.09,31.95,23.76,-45.97,496
8046,-0.83,-0.42,0.2,56.92,30.21,-62.05,497
8067,-1.0,-0.11,-0.14,54.91,57.02,-53.89,498
8086,-1.02,-0.11,-0.22,19.67,25.42,-56.69,498
8107,-0.93,-0.47,-0.12,3.66,24.37,-70.09,499
8126,-1.14,-0.65,0.18,17.6,17.22,-75.04,500
8146,-0.97,-0.79,0.4,50.16,18.2,-101.74,502
8166,-0.88,-0.69,0.47,110.18,61.45,-117.69,505
8186,-1.19,-0.22,0.0,95.53,86.47,-77.88,507
8206,-1.1,-0.3,0.03,56.05,33.62,-91.27,508
8226,-0.82,-0.46,0.06,40.24,41.25,-103.13,508
8246,-0.9,-0.57,0.16,56.69,48.69,-95.97,509
8266,-1.11,-0.58,0.25,60.73,35.37,-98.76,511
8286,-1.02,-0.59,0.06,40.82,16.95,-91.48,512
8306,-0.88,-0.56,-0.01,9.7,-7.45,-75.97,512
8326,-0.72,-0.67,-0.17,-11.55,-1.24,-53.65,511
8346,-0.71,-0.69,-0.15,-33.67,-17.85,-26.63,511
8367,-0.37,-0.97,-0.73,-46.4,-46.82,9.53,509
8386,-0.0,-0.83,-0.08,0.92,-19.19,23.88,508
8407,-0.37,-0.89,-0.12,5.11,-33.72,72.03,508
8426,-0.25,-0.77,-0.12,13.18,-49.07,101.53,508
8446,-0.3,-0.75,0.05,21.44,-48.0,138.43,508
8466,-0.28,-0.78,0.09,27.2,-56.26,169.14,507
8486,-0.32,-0.75,0.03,18.69,-63.04,190.34,507
8506,-0.51,-0.58,0.12,1.96,-65.74,212.58,507
8526,-0.66,-0.57,0.1,-33.82,-83.21,225.02,506
8546,-0.67,-0.75,0.1,-49.12,-87.76,226.72,505
8566,-0.71,-0.73,0.07,-42.6,-84.4,219.74,503
8586,-0.8,-0.66,0.1,-33.23,-80.81,211.94,501
8606,-0.83,-0.6,0.14,-16.68,-78.9,210.53,499
8626,-0.87,-0.39,0.12,-8.83,-61.66,199.89,497
8646,-1.08,-0.37,0.25,1.43,-44.17,163.13,495
8667,-0.81,-0.31,0.15,25.61,-32.49,137.45,495
8686,-0.82,-0.28,-0.03,61.6,6.34,94.99,496
8707,-1.02,-0.06,0.1,79.58,21.34,69.92,497
8726,-0.94,0.16,0.13,68.69,24.4,39.08,499
8747,-0.87,0.03,0.1,45.17,24.29,0.52,499
8766,-0.8,-0.03,0.16,26.57,21.91,-12.05,499
8786,-0.83,-0.04,0.13,-1.92,18.81,-25.88,498
8806,-0.93,-0.07,0.18,-35.18,11.53,-35.1,497
8826,-1.0,-0.07,0.1,-76.76,-6.03,-50.29,497
8846,-1.14,-0.01,0.47,-85.93,-3.07,-47.3,497
8866,-1.46,-0.1,0.51,-81.27,-9.3,-15.33,498
8886,-0.97,-0.39,0.16,-56.25,-9.6,-57.57,499
8906,-0.77,-0.37,0.03,-38.86,11.8,-55.83,499
8926,-0.74,-0.32,-0.05,-21.0,21.27,-34.93,498
8946,-0.9,-0.34,0.07,-3.17,28.43,-35.51,498
8966,-0.88,-0.26,0.28,-4.76,21.79,-37.05,498
8986,-0.89,-0.43,0.29,4.85,30.14,-44.06,498
9007,-0.8,-0.42,0.08,21.87,37.37,-37.08,498
9026,-1.01,-0.29,-0.06,26.48,43.53,-36.7,498
9047,-0.98,-0.12,0.0,16.21,31.25,-32.34,498
9066,-0.9,-0.16,0.05,1.27,26.31,-33.01,498
9086,-0.87,-0.36,0.05,1.06,25.24,-38.31,498
9106,-0.9,-0.44,0.01,12.92,30.47,-39.82,499
9126,-0.96,-0.36,-0.01,17.08,25.51,-30.24,499
9146,-0.86,-0.32,-0.11,13.26,25.57,-27.02,499
9166,-0.91,-0.46,0.03,16.44,21.01,-28.76,499
9186,-0.9,-0.35,0.07,21.15,22.95,-24.4,499
9206,-0.88,-0.28,0.04,10.74,15.7,-23.01,499
9226,-0.89,-0.38,0.04,9.38,16.55,-26.49,499
9246,-0.95,-0.34,0.0,15.56,17.1,-20.5,499
9266,-0.86,-0.28,-0.01,9.63,14.03,-17.27,499
9286,-0.86,-0.38,0.06,10.71,15.54,-23.36,498
9307,-0.92,-0.34,0.05,17.32,17.04,-21.85,499
9326,-0.89,-0.3,0.01,22.14,18.86,-25.89,499
9347,-0.97,-0.2,0.02,19.12,17.42,-28.03,498
9366,-0.91,-0.19,-0.02,8.69,11.65,-25.95,498
9387,-0.85,-0.24,-0.04,-1.08,9.99,-26.23,498
9406,-0.93,-0.28,0.04,-9.89,5.74,-27.86,498
9426,-0.9,-0.18,-0.03,-24.1,0.2,-26.2,497
9446,-0.92,-0.13,-0.05,-43.43,-7.86,-26.2,497
9466,-0.89,-0.39,0.09,-40.27,-5.45,-37.85,497
9486,-0.91,-0.4,0.1,-18.34,4.52,-39.07,498
9506,-0.85,-0.37,0.01,-5.52,9.02,-48.58,498
9526,-0.83,-0.38,-0.09,-3.21,11.22,-50.0,498
9546,-0.86,-0.38,-0.05,1.89,13.04,-51.01,498
9566,-0.92,-0.38,0.05,9.38,14.02,-55.97,498
9586,-0.89,-0.45,0.03,3.09,8.57,-58.43,499
9606,-0.76,-0.6,0.01,1.58,8.0,-62.96,499
9626,-0.82,-0.6,0.01,14.19,12.32,-63.13,500
9647,-0.99,-0.35,-0.09,24.83,23.62,-64.03,501
9666,-1.26,-0.27,-0.01,26.47,24.78,-74.78,502
9687,-1.27,-0.38,0.09,37.92,26.66,-102.09,504
9706,-1.18,-0.33,0.28,63.35,38.69,-120.17,507
9726,-1.04,-0.32,0.42,73.95,50.43,-128.52,509
9746,-1.0,-0.39,0.43,68.37,48.57,-125.05,511
9766,-1.06,-0.41,0.27,51.64,33.11,-107.28,511
9786,-1.07,-0.4,0.12,16.85,8.23,-88.99,512
9806,-1.11,-0.65,-0.03,-11.08,-4.79,-87.69,512
9826,-0.95,-0.81,-0.16,-34.63,-21.8,-78.53,511
9846,-0.54,-0.85,-0.27,-32.8,-9.65,-56.08,510
9866,-0.48,-0.75,-0.17,-39.37,-13.02,-26.58,509
9886,-0.09,-1.12,-0.59,-25.61,-29.83,-4.05,508
9906,-0.31,-0.77,0.01,14.76,-0.37,41.79,507
9926,-0.28,-0.77,-0.11,13.2,-54.21,93.37,507
9947,-0.11,-0.76,-0.07,14.56,-41.3,124.5,506
9966,-0.31,-0.71,-0.0,23.0,-53.01,160.7,507
9987,-0.3,-0.69,0.0,16.57,-64.84,192.26,506
10006,-0.38,-0.76,0.01,13.18,-63.54,208.47,506
10027,-0.55,-0.64,0.1,7.21,-67.98,224.64,505
10046,-0.57,-0.55,0.15,-21.6,-80.61,234.78,505
10066,-0.56,-0.68,0.13,-45.47,-84.23,236.06,503
10086,-0.68,-0.65,0.14,-36.57,-75.16,234.06,501
10106,-0.88,-0.53,0.14,-20.6,-66.99,235.11,499
10126,-1.01,-0.48,0.14,-1.11,-51.69,211.82,497
10146,-1.11,-0.34,0.15,5.55,-42.43,191.95,494
10166,-0.96,-0.01,0.27,-2.04,-35.5,171.76,493
10186,-0.92,0.2,0.2,-7.31,-21.54,130.89,492
10206,-1.04,0.04,0.12,0.39,-3.77,67.21,493
10226,-1.04,0.17,0.21,-3.26,-2.95,31.97,495
10246,-0.95,0.2,0.11,-26.65,-2.73,-10.12,495
10266,-0.83,-0.05,0.07,-47.53,-7.53,-46.73,495
10287,-0.69,-0.36,0.02,-56.05,-5.27,-73.66,496
10306,-0.67,-0.55,0.03,-36.25,22.18,-91.76,496
10327,-1.05,-0.37,0.33,-5.95,38.05,-53.21,496
10346,-1.47,0.15,0.5,-17.23,28.21,-4.26,497
10366,-1.28,0.07,0.29,-64.92,-12.29,-53.05,498
10386,-0.82,-0.49,0.1,-83.18,-4.75,-79.63,498
10406,-0.55,-0.56,0.07,-55.7,9.27,-36.76,499
10426,-0.72,-0.65,0.0,-9.37,42.34,-37.31,498
10446,-0.85,-0.58,0.25,30.88,48.35,-41.31,498
10466,-0.84,-0.44,0.19,36.94,48.55,-36.78,498
10486,-0.96,-0.24,0.08,30.19,46.37,-30.23,498
10506,-0.95,-0.32,-0.09,24.76,42.26,-36.63,497
10526,-0.96,-0.39,-0.11,31.17,40.23,-31.47,497
10546,-0.94,-0.23,0.03,19.35,31.68,-28.32,497
10566,-0.93,-0.26,0.1,15.81,29.8,-32.93,497
10587,-0.99,-0.12,0.01,-0.48,18.63,-27.36,497
10606,-0.87,-0.24,-0.03,-8.07,16.32,-33.59,498
10627,-0.94,-0.33,0.01,9.99,23.24,-37.1,498
10646,-0.95,-0.15,-0.01,17.52,23.94,-31.01,498
10667,-0.86,-0.19,0.01,1.79,16.5,-30.32,498
10686,-0.89,-0.38,0.05,-6.36,14.76,-32.31,498
10706,-0.88,-0.42,0.06,-2.53,12.7,-31.15,498
10726,-0.87,-0.36,0.02,-6.11,11.8,-28.46,497
10746,-0.84,-0.51,0.0,-6.76,8.63,-29.4,497
10766,-0.81,-0.57,0.04,5.41,13.48,-26.58,497
10786,-0.88,-0.4,0.03,12.13,17.05,-23.42,497
10806,-0.9,-0.3,-0.02,9.96,17.07,-22.82,497
10826,-0.88,-0.33,-0.02,9.43,16.78,-25.6,497
10846,-0.95,-0.29,0.02,8.37,15.51,-27.15,498
10866,-0.9,-0.3,0.02,4.27,11.63,-28.76,498
10886,-0.85,-0.38,0.03,8.56,14.67,-33.13,497
10906,-0.9,-0.33,0.04,16.51,18.2,-37.08,498
10927,-0.9,-0.16,-0.03,17.14,20.86,-36.31,498
10946,-0.91,-0.06,-0.04,5.56,14.64,-40.38,497
10967,-0.91,-0.11,-0.04,-9.86,9.92,-46.82,497
10986,-0.92,-0.21,-0.06,-22.73,3.6,-51.89,497
11006,-0.84,-0.33,-0.03,-23.08,3.54,-58.23,498
11026,-0.83,-0.33,0.02,-14.36,9.21,-64.7,499
11046,-0.85,-0.36,-0.01,-9.76,13.86,-71.8,500
11066,-0.86,-0.49,-0.05,-11.06,12.0,-78.28,501
11086,-0.93,-0.59,-0.05,-0.1,19.34,-85.31,502
11106,-1.14,-0.62,-0.03,13.7,24.95,-90.28,503
11126,-1.28,-0.65,0.18,30.89,21.18,-99.45,504
11146,-1.26,-0.54,0.31,52.98,31.47,-110.72,506
11166,-1.22,-0.43,0.35,75.32,45.11,-121.91,508
11186,-1.22,-0.34,0.44,81.85,46.02,-122.38,510
11206,-1.11,-0.4,0.34,65.58,37.99,-115.57,512
11227,-1.06,-0.46,0.12,30.79,17.88,-94.93,512
11246,-0.98,-0.51,-0.09,-14.76,-4.9,-87.4,512
11267,-0.82,-0.72,-0.17,-47.96,-15.21,-76.46,511
11286,-0.55,-0.99,-0.25,-42.73,-12.09,-53.66,510
11307,-0.38,-0.93,-0.16,-17.31,-16.61,-17.31,510
11326,0.01,-1.06,-0.48,13.95,-17.97,9.56,508
11346,-0.23,-0.68,-0.05,39.61,3.94,49.36,508
11366,-0.38,-0.67,-0.06,16.51,-48.69,106.09,507
11386,-0.11,-0.68,-0.06,-3.47,-56.53,142.09,507
11406,-0.21,-0.85,-0.09,3.38,-63.01,167.08,507
11426,-0.34,-0.69,-0.04,-0.45,-65.01,189.36,506
11446,-0.44,-0.62,0.06,-20.83,-86.78,211.97,506
11466,-0.45,-0.77,0.03,-10.95,-81.77,222.81,506
11486,-0.57,-0.66,0.12,-18.33,-83.8,230.4,505
11506,-0.57,-0.65,0.09,-35.37,-87.45,227.54,504
11526,-0.64,-0.71,0.03,-32.59,-84.43,227.45,502
11546,-0.84,-0.6,0.11,-15.02,-70.58,229.74,500
11567,-1.01,-0.43,0.21,7.41,-54.06,210.96,498
11586,-0.98,-0.28,0.26,7.89,-47.13,195.21,495
11607,-0.91,-0.17,0.2,8.77,-30.27,164.95,493
11626,-0.97,-0.14,0.16,25.11,-12.26,124.58,492
11646,-1.03,0.04,0.14,35.73,1.37,91.6,492
11666,-1.05,0.3,0.2,16.4,3.97,57.85,493
11686,-1.02,0.23,0.15,-16.85,-3.01,9.77,493
11706,-0.91,-0.01,0.17,-28.97,-1.04,-24.17,494
11726,-0.81,-0.18,0.16,-28.65,2.76,-56.44,496
11746,-0.73,-0.29,0.09,-37.08,4.57,-76.64,496
11766,-0.84,-0.31,0.06,-45.6,11.21,-70.76,496
11786,-1.0,-0.22,0.3,-38.3,15.33,-40.11,496
11806,-1.26,0.03,0.47,-35.43,18.81,-17.5,497
11826,-1.34,0.01,0.46,-46.73,5.42,-46.7,498
11846,-0.99,-0.26,0.15,-74.39,-9.13,-64.02,499
11867,-0.54,-0.56,0.01,-40.19,18.08,-59.28,499
11886,-0.67,-0.67,0.03,27.09,57.44,-47.27,499
11907,-0.98,-0.23,0.16,42.16,45.15,-36.53,498
11926,-1.0,0.02,0.17,-4.13,28.73,-36.64,498
11947,-0.92,-0.22,0.14,-30.3,20.23,-41.53,498
11966,-0.85,-0.38,0.01,-24.88,22.69,-37.21,498
11986,-0.94,-0.42,-0.04,-6.76,30.08,-41.83,497
12006,-0.92,-0.26,-0.01,1.63,28.14,-36.84,498
12026,-0.95,-0.17,-0.01,-8.18,22.7,-28.99,498
12046,-0.9,-0.23,0.04,-32.83,10.12,-26.23,498
12066,-0.82,-0.53,0.13,-32.39,9.53,-35.53,498
12086,-0.81,-0.66,0.07,-4.8,21.05,-32.53,498
12106,-0.9,-0.47,-0.04,17.14,29.28,-26.18,498
12126,-0.88,-0.24,-0.06,19.52,30.69,-20.92,498
12146,-0.99,-0.11,0.03,2.57,20.38,-19.04,498
12166,-0.98,-0.2,0.02,-26.45,4.03,-21.07,497
12186,-0.8,-0.49,0.0,-28.15,2.05,-25.6,497
12207,-0.83,-0.56,0.05,-3.05,15.59,-21.92,497
12226,-0.93,-0.32,0.07,6.66,16.55,-18.78,497
12247,-0.89,-0.27,0.05,-2.33,10.26,-22.15,497
12266,-0.85,-0.34,0.05,0.21,15.18,-25.02,497
12286,-0.92,-0.26,0.03,11.14,21.4,-25.85,497
12306,-0.96,-0.19,-0.01,9.41,19.74,-28.69,497
12326,-0.91,-0.24,-0.05,-0.34,13.74,-29.65,496
12346,-0.87,-0.35,0.03,-4.62,12.12,-32.84,496
12366,-0.84,-0.42,0.09,0.22,13.95,-34.15,496
12386,-0.82,-0.33,0.0,0.1,16.26,-32.86,497
12406,-0.9,-0.28,-0.01,-7.89,12.32,-38.15,496
12426,-0.9,-0.3,-0.07,-4.15,13.25,-41.62,496
12446,-0.89,-0.24,-0.09,-2.69,13.01,-42.21,496
12466,-0.92,-0.33,-0.05,-5.5,11.44,-51.73,497
12486,-0.87,-0.41,0.0,-0.5,12.2,-54.98,497
12507,-0.87,-0.38,-0.02,9.23,22.86,-61.51,498
12526,-0.92,-0.48,0.06,20.42,24.96,-74.75,499
12547,-1.0,-0.6,0.08,41.17,28.95,-92.15,500
12566,-1.12,-0.62,0.17,59.69,39.59,-95.08,502
12587,-1.18,-0.58,0.31,95.75,52.12,-113.19,504
12606,-1.33,-0.28,0.12,108.22,72.46,-103.66,506
12626,-1.01,-0.33,0.26,50.57,17.1,-102.82,507
12646,-0.61,-0.76,0.3,33.56,33.71,-110.15,507
12666,-0.8,-0.78,0.27,58.57,41.37,-89.13,508
12686,-0.98,-0.59,0.23,75.9,41.88,-87.5,509
12706,-1.12,-0.37,0.1,56.73,27.44,-74.84,510
12726,-1.1,-0.39,-0.12,16.3,18.7,-75.8,510
12746,-0.93,-0.58,-0.17,-17.06,-1.47,-68.79,510
12766,-0.63,-0.71,-0.22,-26.94,-10.03,-42.84,509
12786,-0.27,-1.0,-0.58,-28.5,-20.17,-27.02,507
12806,-0.09,-0.81,-0.08,18.33,7.94,0.61,507
12826,-0.44,-0.77,0.05,27.27,-12.29,62.89,507
12847,-0.27,-0.64,-0.08,12.02,-32.95,101.13,506
12866,-0.31,-0.71,-0.03,7.35,-32.81,134.26,506
12887,-0.36,-0.75,-0.01,14.05,-44.56,165.48,506
12906,-0.41,-0.74,-0.0,14.95,-51.65,187.36,505
12926,-0.51,-0.72,0.07,7.52,-64.32,205.25,505
12946,-0.6,-0.56,0.16,-12.25,-73.18,223.68,504
12966,-0.7,-0.56,0.17,-40.62,-81.48,231.25,504
12986,-0.66,-0.71,0.15,-54.13,-86.7,221.65,503
13006,-0.7,-0.7,0.12,-37.76,-69.47,216.76,501
13026,-0.77,-0.6,0.11,-8.74,-60.37,213.94,499
13046,-0.88,-0.52,0.03,18.16,-41.74,194.35,497
13066,-1.01,-0.41,0.11,34.65,-27.39,177.71,496
13086,-0.98,-0.2,0.19,53.69,-3.43,145.3,495
13106,-0.93,-0.07,0.02,59.55,7.63,109.72,495
13126,-0.98,0.16,0.19,53.06,21.74,79.31,494
13147,-0.97,0.3,0.19,17.95,11.57,41.66,494
13166,-0.98,0.19,0.14,-13.76,9.07,0.98,494
13187,-0.93,0.1,0.11,-46.05,-1.86,-29.19,494
13206,-0.85,-0.1,0.09,-75.7,-10.2,-59.83,495
13227,-0.73,-0.44,0.06,-90.8,-5.51,-83.53,495
13246,-0.8,-0.49,0.25,-79.84,-2.0,-58.57,495
13266,-1.14,-0.18,0.71,-39.76,24.99,-21.15,496
13286,-1.67,-0.11,0.53,-28.54,3.88,-27.79,497
13306,-0.89,-0.26,0.01,-43.12,-1.5,-76.28,499
13326,-0.6,-0.3,-0.07,-47.81,12.52,-53.71,499
13346,-0.87,-0.33,-0.06,-23.32,32.14,-35.76,499
13366,-0.96,-0.3,0.15,-6.02,21.66,-37.68,497
13386,-0.85,-0.24,0.2,-14.83,23.22,-42.31,498
13406,-0.86,-0.43,0.05,-11.43,28.23,-47.91,498
13426,-0.88,-0.43,-0.07,3.26,32.31,-47.42,498
13446,-0.9,-0.36,-0.1,9.89,31.91,-42.12,498
13466,-0.94,-0.23,-0.01,4.22,30.44,-37.65,498
13487,-0.92,-0.21,0.03,-11.27,20.11,-36.24,498
13506,-0.86,-0.3,-0.01,-24.59,16.46,-32.7,498
13527,-0.9,-0.45,-0.0,-26.3,13.8,-35.1,498
13546,-0.84,-0.55,-0.01,-13.31,15.22,-32.32,498
13566,-0.86,-0.45,0.05,-0.05,22.93,-23.97,499
13586,-0.89,-0.34,0.01,-6.77,16.34,-22.18,498
13606,-0.86,-0.39,0.02,-14.18,15.6,-18.67,498
13626,-0.88,-0.43,0.03,-19.14,10.37,-19.83,498
13646,-0.9,-0.38,0.06,-12.13,8.53,-19.51,497
13666,-0.85,-0.32,0.05,-2.11,14.9,-17.48,497
13686,-0.9,-0.24,0.06,-0.63,16.09,-21.88,497
13706,-0.93,-0.22,-0.02,-6.22,15.71,-24.21,497
13726,-0.92,-0.27,-0.05,-9.82,9.86,-29.19,497
13746,-0.91,-0.36,0.05,-4.48,11.25,-30.98,497
13766,-0.88,-0.39,0.06,-1.9,10.0,-29.21,497
13787,-0.79,-0.45,0.01,-3.75,12.41,-32.08,497
13806,-0.81,-0.47,0.01,-0.39,14.64,-31.01,497
13827,-0.86,-0.42,0.03,8.63,17.62,-32.49,496
13846,-0.86,-0.31,-0.03,7.15,18.98,-30.75,496
13867,-0.9,-0.29,-0.03,3.02,18.03,-36.32,496
13886,-0.93,-0.31,0.01,0.44,15.1,-39.3,496
13906,-0.84,-0.41,-0.04,2.33,18.08,-44.58,497
13926,-0.84,-0.45,-0.02,6.82,20.84,-46.34,497
13946,-0.84,-0.4,-0.01,10.21,23.11,-46.46,497
13966,-0.87,-0.4,0.0,13.09,24.96,-52.23,498
13986,-0.92,-0.49,0.11,20.71,18.92,-66.81,499
14006,-0.98,-0.44,0.16,42.5,33.92,-80.75,500
14026,-1.33,-0.35,0.22,63.02,39.63,-90.93,502
14046,-1.51,-0.42,0.08,73.06,45.33,-114.81,505
14066,-1.25,-0.43,-0.01,55.75,32.66,-104.9,506
14086,-0.78,-0.55,0.17,59.31,33.08,-119.97,507
14106,-0.8,-0.57,0.24,77.58,55.53,-113.71,508
14127,-0.97,-0.5,0.25,79.89,49.99,-102.11,509
14146,-0.93,-0.45,0.21,60.11,31.53,-98.9,511
14167,-0.98,-0.48,0.11,30.05,20.44,-89.51,511
14186,-1.02,-0.65,-0.06,3.49,1.65,-77.19,512
14206,-0.84,-0.68,-0.22,-20.28,-12.09,-50.72,511
14226,-0.68,-0.68,-0.18,-37.6,-20.46,-28.78,510
14246,-0.27,-0.96,-0.64,-55.11,-56.35,-16.73,508
14266,0.01,-0.91,-0.29,-5.73,-15.07,0.52,507
14286,-0.48,-0.83,0.06,7.23,-33.05,58.4,507
14306,-0.21,-0.77,-0.17,-2.98,-72.14,100.2,507
14326,-0.2,-0.75,-0.1,9.31,-56.92,137.14,507
14346,-0.3,-0.83,-0.04,30.53,-58.47,161.36,506
14366,-0.33,-0.74,0.04,26.27,-62.38,183.39,506
14386,-0.45,-0.66,0.1,4.95,-77.33,204.73,505
14406,-0.54,-0.54,0.12,-21.61,-79.34,227.8,505
14427,-0.67,-0.65,0.12,-48.07,-84.58,225.56,504
14446,-0.69,-0.74,0.1,-55.21,-93.36,219.34,503
14467,-0.74,-0.65,0.1,-46.86,-91.34,221.82,500
14486,-0.85,-0.53,0.14,-43.03,-84.38,222.98,498
14507,-0.94,-0.5,0.3,-25.73,-68.75,206.55,496
14526,-0.81,-0.42,0.24,-7.99,-54.43,186.31,493
14546,-0.85,-0.44,0.02,22.53,-23.22,144.7,492
14566,-1.0,-0.01,0.1,37.75,-3.97,128.12,492
14586,-1.1,0.29,0.18,21.61,1.28,76.98,492
14606,-1.01,0.16,0.12,-1.2,2.11,25.13,492
14626,-0.84,-0.01,0.15,-13.72,5.54,-19.28,493
14646,-0.87,-0.12,0.14,-40.15,-2.66,-46.53,493
14666,-0.82,-0.29,0.1,-72.51,-8.63,-76.02,494
14686,-0.66,-0.57,0.14,-56.21,2.78,-79.33,494
14706,-1.02,-0.4,0.39,9.69,41.85,-20.23,494
14726,-1.48,-0.01,0.54,31.03,44.52,-32.37,496
14746,-1.29,0.14,0.22,-34.76,-5.57,-50.32,498
14767,-0.67,-0.34,0.03,-57.73,5.44,-60.66,498
14786,-0.69,-0.6,-0.04,-17.23,23.95,-46.5,498
14807,-0.92,-0.22,0.11,-3.12,25.92,-28.4,497
14826,-0.91,-0.23,0.21,-24.6,16.2,-35.05,497
14846,-0.83,-0.32,0.24,-29.15,14.26,-26.72,497
14866,-0.79,-0.39,0.15,-19.86,22.41,-29.5,498
14886,-0.91,-0.44,0.11,4.85,32.9,-35.85,498
14906,-1.0,-0.27,-0.08,9.4,30.08,-24.99,498
14926,-0.92,-0.21,-0.04,-3.58,20.79,-25.42,498
14946,-0.9,-0.28,0.06,-9.52,18.47,-30.72,498
14966,-0.98,-0.31,0.13,-15.73,15.45,-24.46,498
14986,-0.78,-0.44,0.06,-13.61,14.12,-24.81,498
15006,-0.86,-0.47,0.08,5.6,26.08,-27.04,498
15026,-0.98,-0.23,-0.0,1.61,23.7,-17.07,498
15046,-0.9,-0.21,-0.06,-25.05,6.57,-11.33,497
15067,-0.86,-0.44,0.05,-31.08,3.8,-16.81,497
15086,-0.89,-0.45,0.14,-12.02,11.92,-12.4,497
15107,-0.89,-0.24,0.09,-14.76,10.17,-3.15,497
15126,-0.92,-0.21,0.07,-31.49,3.92,-8.64,497
15147,-0.9,-0.31,0.0,-30.66,4.58,-15.1,497
15166,-0.89,-0.32,0.0,-14.57,12.9,-16.05,497
15186,-0.91,-0.3,0.07,-14.19,9.65,-13.95,497
15206,-0.88,-0.33,0.08,-18.21,6.69,-18.15,496
15226,-0.91,-0.32,0.02,-13.79,8.37,-17.63,496
15246,-0.88,-0.28,-0.02,-1.56,14.03,-21.79,496
15266,-0.93,-0.21,0.09,6.01,17.71,-28.79,496
15286,-0.93,-0.21,0.02,5.72,20.2,-33.16,496
15306,-0.96,-0.29,-0.08,-4.76,14.0,-33.65,496
15326,-0.86,-0.44,-0.05,-7.08,7.91,-36.08,496
15346,-0.89,-0.51,0.04,7.47,11.3,-35.99,496
15366,-0.87,-0.3,0.05,26.36,20.98,-38.24,496
15386,-0.93,-0.07,0.08,24.76,22.44,-42.87,496
15407,-0.99,-0.01,0.07,16.18,25.15,-54.29,496
15426,-0.97,0.03,0.01,13.09,23.68,-65.91,497
15447,-1.01,-0.2,0.08,20.28,18.52,-97.27,498
15466,-1.04,-0.61,0.2,41.72,31.28,-124.24,500
15486,-1.19,-0.75,0.27,82.21,56.75,-126.29,503
15506,-1.43,-0.51,0.4,120.11,58.72,-129.89,506
15526,-1.42,-0.26,0.32,120.77,56.55,-136.46,508
15546,-1.11,-0.22,0.28,80.31,35.63,-124.05,509
15566,-0.85,-0.45,0.11,25.4,15.79,-101.69,508
15586,-0.61,-0.62,-0.13,-31.17,-6.3,-79.56,508
15606,-0.49,-0.79,-0.39,-69.38,-16.69,-57.22,506
15626,-0.34,-1.05,-0.29,-51.12,-25.16,-43.18,506
15646,-0.12,-1.27,-0.39,7.05,-10.81,-18.96,506
15666,0.12,-1.05,-0.08,57.95,-12.26,30.47,505
15686,-0.22,-0.79,-0.06,61.78,-7.92,70.89,506
15707,-0.4,-0.45,-0.08,-0.85,-49.1,116.27,506
15726,-0.33,-0.5,0.03,-73.55,-71.53,136.32,505
15747,-0.28,-1.1,-0.07,-47.76,-64.66,139.07,505
15766,-0.42,-1.14,0.05,-5.47,-45.74,138.85,505
15787,-0.5,-0.69,0.01,-4.65,-45.42,143.42,505
15806,-0.6,-0.72,-0.08,-17.09,-38.61,128.18,504
15826,-0.8,-0.66,0.12,-25.96,-31.11,93.92,504
15846,-0.6,-0.8,-0.02,-18.24,-27.04,62.03,503
15866,-0.56,-0.75,0.01,-5.5,-1.43,44.43,503
15886,-0.68,-0.7,0.02,1.67,5.48,28.61,502
15906,-0.66,-0.8,0.09,2.01,-5.77,34.61,501
15926,-0.67,-0.67,0.1,7.02,-3.27,59.13,499
15946,-0.93,-0.45,0.13,2.21,-9.48,54.98,499
15966,-1.07,-0.32,0.22,-7.0,-10.38,26.43,499
15986,-1.01,-0.2,0.13,-37.47,-17.85,17.74,500
16006,-1.06,-0.35,0.2,-34.89,-12.6,12.06,499
16026,-1.06,-0.5,0.27,-22.97,-16.96,15.19,499
16047,-0.73,-0.46,0.05,-2.13,-0.38,9.91,498
16066,-0.83,-0.34,0.04,6.68,7.63,8.5,498
16087,-0.92,-0.25,0.0,-5.0,3.68,15.57,497
16106,-0.93,-0.34,0.1,-3.35,-0.3,8.38,497
16126,-0.86,-0.3,0.18,-8.83,-1.5,7.1,496
16146,-0.86,-0.35,0.17,-11.02,1.19,4.32,496
16166,-0.94,-0.34,0.08,-7.99,1.53,4.78,496
16186,-0.97,-0.26,0.02,-13.66,-1.8,5.56,496
16206,-0.86,-0.34,0.08,-14.92,-4.37,3.77,496
16226,-0.83,-0.42,0.13,-7.63,2.37,0.49,496
16246,-0.88,-0.41,0.12,-5.52,2.66,2.4,496
16266,-0.86,-0.44,0.05,-7.06,0.52,4.82,496
16286,-0.89,-0.47,0.08,-2.5,2.95,3.57,495
16306,-0.87,-0.38,0.11,-0.82,2.93,8.03,496
