Time,AccX,AccY,AccZ,GyroX,GyroY,GyroZ,Capacitance
7265,-0.91,-0.27,0.06,-8.78,-0.83,-11.97,485
7285,-0.91,-0.31,0.06,-3.83,1.84,-13.65,483
7305,-0.92,-0.27,0.05,1.16,4.89,-15.43,483
7325,-0.93,-0.25,0.06,4.89,6.08,-19.98,484
7345,-0.94,-0.24,0.09,12.08,10.28,-25.28,485
7365,-0.92,-0.29,0.1,22.84,14.71,-32.01,486
7386,-0.93,-0.3,0.09,32.67,19.2,-37.34,486
7405,-0.98,-0.21,0.11,28.9,16.63,-36.84,487
7426,-0.95,-0.24,0.06,16.23,7.58,-39.46,488
7445,-0.87,-0.28,0.09,4.18,10.62,-38.5,490
7465,-0.86,-0.32,0.13,-3.33,9.53,-43.54,491
7485,-0.94,-0.26,0.09,-11.75,7.28,-42.15,493
7505,-1.04,-0.28,0.14,-26.18,1.78,-43.82,495
7525,-0.89,-0.47,0.04,-39.34,-2.76,-44.06,496
7545,-0.7,-0.68,0.03,-30.38,0.42,-32.07,496
7565,-0.89,-0.6,0.1,-8.64,-6.8,1.71,496
7585,-0.91,-0.42,0.08,-6.23,-27.27,29.39,496
7605,-0.92,-0.39,0.07,-8.43,-34.72,55.36,496
7625,-0.92,-0.41,0.1,-5.69,-50.95,73.97,496
7645,-0.92,-0.36,0.15,-7.31,-53.21,85.59,496
7665,-0.96,-0.33,0.19,-11.91,-54.8,96.98,495
7686,-0.88,-0.32,0.2,-10.47,-57.29,103.67,495
7706,-0.77,-0.39,0.13,4.14,-36.22,96.12,494
7727,-0.91,-0.4,0.1,26.25,-25.46,94.64,493
7746,-0.87,-0.27,0.1,31.94,-25.56,97.16,492
7767,-0.87,-0.21,0.14,31.28,-21.05,91.99,491
7786,-0.81,-0.11,0.09,24.0,-24.42,90.31,490
7806,-0.77,-0.12,0.04,10.55,-22.66,64.58,490
7826,-0.87,-0.19,0.19,-0.66,-22.97,62.12,489
7846,-0.81,-0.21,0.13,-7.05,-23.98,50.61,489
7866,-0.93,-0.09,0.16,-3.72,-13.49,33.93,490
7886,-0.85,-0.05,0.16,-13.74,-12.42,20.34,490
7906,-0.85,-0.18,0.11,-16.27,-4.56,-1.62,490
7926,-0.86,-0.17,0.13,-13.39,4.39,-17.05,490
7946,-0.9,-0.13,0.11,-22.75,4.5,-28.37,490
7966,-0.78,-0.14,0.0,-48.49,0.15,-42.37,490
7986,-0.76,-0.25,-0.03,-62.93,12.53,-53.71,489
8006,-1.09,-0.32,0.23,-39.31,21.2,-26.72,490
8027,-1.47,-0.15,0.56,-16.56,18.85,4.29,491
8046,-1.03,-0.12,0.19,-35.6,9.93,-50.33,491
8067,-0.85,-0.33,0.09,-62.55,9.37,-52.53,492
8086,-0.61,-0.49,-0.16,-36.03,22.86,-24.18,491
8107,-0.93,-0.66,-0.08,22.02,43.96,-40.06,490
8126,-0.89,-0.4,0.1,34.11,36.77,-28.78,490
8146,-0.87,-0.3,0.18,13.89,30.21,-22.93,491
8166,-0.88,-0.38,0.13,1.02,27.67,-25.85,491
8186,-0.9,-0.26,0.04,-7.75,22.11,-17.24,491
8206,-0.89,-0.33,-0.01,-6.93,24.59,-16.93,490
8226,-0.98,-0.28,-0.05,3.62,25.0,-19.01,490
8246,-0.95,-0.18,-0.0,1.39,21.08,-17.24,490
8266,-0.87,-0.29,0.03,2.75,25.46,-23.53,490
8286,-1.0,-0.27,-0.02,11.04,26.3,-24.2,490
8306,-0.93,-0.19,-0.06,9.92,25.5,-23.31,490
8326,-0.94,-0.16,-0.03,0.08,18.79,-22.81,490
8346,-0.91,-0.24,0.03,-9.6,16.47,-27.28,490
8367,-0.87,-0.34,0.07,-6.84,17.52,-26.29,489
8386,-0.9,-0.23,0.07,-6.82,17.57,-25.69,489
8407,-0.95,-0.16,-0.07,-13.8,17.35,-25.34,489
8426,-0.9,-0.2,-0.09,-26.46,10.37,-23.11,489
8446,-0.88,-0.32,0.01,-30.4,10.74,-28.82,489
8466,-0.9,-0.34,0.03,-24.9,10.97,-28.32,489
8486,-0.85,-0.29,0.0,-28.76,10.65,-28.7,489
8506,-0.88,-0.28,-0.05,-34.82,10.22,-31.68,489
8526,-0.85,-0.31,-0.02,-36.11,9.11,-30.32,489
8546,-0.79,-0.42,0.01,-17.53,18.65,-38.41,488
8566,-0.92,-0.33,-0.05,-9.3,22.04,-35.11,489
8586,-0.85,-0.41,-0.11,-16.15,18.48,-41.6,489
8606,-0.77,-0.45,-0.07,-9.65,24.69,-41.54,488
8626,-0.87,-0.34,-0.0,2.44,32.21,-43.2,489
8646,-0.85,-0.39,-0.02,1.27,27.24,-49.88,490
8667,-0.79,-0.41,-0.07,-1.43,33.98,-53.16,491
8686,-0.93,-0.41,-0.14,4.99,40.74,-58.03,491
8707,-1.22,-0.37,-0.06,19.51,53.44,-65.71,492
8726,-1.29,-0.5,0.32,51.16,65.21,-90.46,495
8747,-1.27,-0.8,0.46,110.5,95.72,-131.54,498
8766,-1.55,-0.61,0.34,165.5,108.79,-148.87,503
8786,-1.63,-0.11,0.41,176.78,98.08,-132.0,506
8806,-1.09,0.03,0.29,109.25,70.73,-135.69,507
8826,-0.97,-0.32,0.07,29.22,56.54,-108.38,507
8846,-0.98,-0.57,-0.14,-30.79,37.75,-94.18,508
8866,-0.71,-0.73,-0.33,-61.02,9.9,-66.78,507
8886,-0.44,-0.91,-0.46,-58.33,14.1,-43.25,507
8906,-0.44,-1.07,-0.43,-10.84,10.11,-10.75,506
8926,-0.16,-0.88,-0.15,41.96,-10.48,47.19,506
8946,-0.33,-0.7,-0.25,37.04,-38.68,90.25,506
8966,-0.14,-0.63,-0.24,27.89,-55.06,137.25,506
8986,-0.21,-0.75,-0.21,17.59,-71.61,168.84,504
9007,-0.26,-0.72,-0.17,19.8,-87.23,200.89,504
9026,-0.33,-0.73,-0.11,8.02,-100.91,219.31,502
9047,-0.43,-0.67,-0.11,-7.01,-118.1,238.4,501
9066,-0.5,-0.61,-0.04,-24.53,-122.59,248.25,499
9086,-0.59,-0.67,-0.01,-56.35,-132.4,238.06,496
9106,-0.74,-0.59,-0.01,-67.65,-138.74,230.61,493
9126,-1.11,-0.46,0.14,-45.72,-123.89,221.56,490
9146,-1.03,-0.42,0.22,-15.54,-106.51,183.34,487
9166,-0.87,-0.28,0.09,14.76,-50.54,129.96,485
9186,-0.93,-0.15,0.19,36.37,-26.59,98.55,486
9206,-0.84,0.01,0.02,56.11,9.44,47.21,486
9226,-1.01,0.19,0.1,41.13,17.29,-1.2,486
9246,-0.86,0.18,0.07,-12.44,4.13,-42.88,486
9266,-0.68,-0.07,-0.1,-54.59,21.09,-86.0,487
9286,-0.96,-0.59,0.3,-41.02,46.08,-92.0,486
9307,-1.67,-0.36,0.69,-4.7,16.74,16.69,486
9326,-1.0,0.02,0.07,-26.47,9.6,-59.17,488
9347,-0.88,-0.36,-0.09,-86.2,21.79,-87.14,489
9366,-0.61,-0.7,-0.2,-67.05,11.38,-43.28,488
9387,-0.67,-0.76,-0.01,12.21,48.51,-29.94,489
9406,-0.92,-0.45,0.29,29.86,45.38,-38.78,489
9426,-0.99,-0.18,0.17,7.94,36.88,-30.59,490
9446,-0.9,-0.2,-0.16,-13.62,32.28,-29.45,490
9466,-0.89,-0.48,-0.22,-5.14,31.23,-33.17,489
9486,-0.98,-0.42,-0.07,12.72,29.64,-24.56,489
9506,-0.91,-0.22,-0.03,4.63,21.66,-22.72,489
9526,-0.89,-0.3,0.02,-5.83,22.82,-30.0,489
9546,-0.9,-0.28,0.01,1.6,26.21,-30.04,489
9566,-0.99,-0.21,-0.07,4.4,23.67,-24.11,489
9586,-0.83,-0.28,-0.05,-0.96,23.64,-25.01,489
9606,-0.87,-0.43,0.08,5.21,27.64,-25.49,489
9626,-0.93,-0.32,0.04,3.97,20.92,-23.02,489
9647,-0.85,-0.31,0.01,-3.11,18.86,-26.52,488
9666,-0.88,-0.32,0.04,9.27,26.01,-29.89,488
9687,-0.98,-0.05,-0.02,15.56,26.68,-22.79,489
9706,-0.98,0.08,-0.0,-2.38,21.95,-31.05,488
9726,-0.97,-0.06,0.07,-18.29,18.71,-44.96,488
9746,-0.89,-0.19,0.06,-11.33,23.34,-51.31,488
9766,-0.87,-0.21,0.06,2.31,30.16,-59.49,489
9786,-0.88,-0.19,-0.06,-7.66,27.08,-56.95,488
9806,-0.81,-0.33,-0.1,-21.04,22.62,-62.09,489
9826,-0.86,-0.44,-0.09,-14.29,28.53,-66.62,489
9846,-0.87,-0.5,-0.03,4.06,33.34,-71.31,490
9866,-0.91,-0.36,-0.04,20.75,43.06,-75.22,492
9886,-1.02,-0.31,0.15,31.25,54.53,-93.13,494
9906,-1.27,-0.46,0.33,56.63,72.27,-125.04,498
9926,-1.81,-0.46,0.4,92.34,85.98,-139.46,503
9947,-1.89,-0.39,0.38,117.94,80.63,-155.53,506
9966,-1.17,-0.38,0.42,98.86,66.65,-170.41,507
9987,-0.91,-0.64,0.29,98.21,78.42,-140.81,507
10006,-0.94,-0.42,-0.28,41.1,32.4,-95.75,507
10027,-0.81,-0.33,-0.46,-45.97,16.76,-72.79,506
10046,-0.6,-0.53,-0.45,-93.39,-14.79,-55.94,506
10066,-0.43,-0.9,-0.33,-78.98,-26.59,-28.81,506
10086,-0.02,-1.14,-0.32,-9.63,-19.7,7.65,506
10106,-0.25,-0.81,-0.16,34.75,-19.61,67.91,506
10126,-0.3,-0.68,-0.2,30.43,-80.82,124.03,505
10146,-0.13,-0.66,-0.28,15.97,-72.91,159.99,505
10166,-0.39,-0.83,-0.12,24.06,-85.34,191.94,504
10186,-0.34,-0.89,-0.11,26.02,-109.69,217.93,502
10206,-0.43,-0.75,-0.02,11.71,-117.87,237.34,501
10226,-0.61,-0.51,0.05,-17.1,-128.24,258.76,499
10246,-0.7,-0.51,0.05,-66.35,-136.28,248.84,497
10266,-0.69,-0.65,0.13,-87.74,-138.63,227.13,493
10287,-0.79,-0.61,0.09,-64.78,-123.64,215.85,491
10306,-0.94,-0.71,0.07,-9.77,-84.53,175.67,489
10327,-0.94,-0.49,0.13,33.8,-69.56,160.95,487
10346,-0.77,-0.08,-0.12,61.19,-13.75,118.8,486
10366,-1.01,0.17,0.07,69.51,12.56,51.65,486
10386,-0.85,0.17,0.07,47.77,21.21,12.15,486
10406,-0.92,0.13,-0.04,7.02,30.27,-41.68,486
10426,-0.94,0.1,0.02,-51.13,15.26,-68.98,486
10446,-0.67,-0.47,0.17,-85.4,20.3,-100.84,486
10466,-1.25,-0.38,0.66,-59.94,34.4,-27.91,486
10486,-1.59,-0.21,0.31,-66.85,-7.87,-24.06,489
10506,-0.81,-0.47,-0.13,-74.7,15.26,-88.64,489
10526,-0.59,-0.45,-0.19,-74.76,12.95,-57.71,489
10546,-0.66,-0.41,-0.08,-40.93,34.86,-22.66,489
10566,-0.97,-0.49,0.24,-18.01,24.5,-31.53,490
10587,-0.79,-0.3,0.33,-23.21,30.62,-32.52,490
10606,-0.92,-0.34,-0.05,-27.95,42.47,-37.65,490
10627,-0.95,-0.33,-0.23,-12.44,39.17,-35.42,489
10646,-0.9,-0.34,-0.2,11.22,44.48,-35.01,489
10667,-0.99,-0.2,-0.06,14.37,38.15,-33.91,490
10686,-0.96,-0.17,-0.08,-18.88,22.25,-39.36,489
10706,-0.79,-0.43,-0.07,-40.92,16.42,-40.11,489
10726,-0.73,-0.7,0.06,-19.37,27.95,-41.27,489
10746,-0.91,-0.51,0.05,7.57,31.98,-29.11,490
10766,-0.9,-0.29,-0.05,-2.46,23.89,-26.98,489
10786,-0.86,-0.37,-0.05,-11.42,22.66,-30.0,489
10806,-0.86,-0.44,0.01,-5.11,23.26,-30.09,490
10826,-0.83,-0.43,0.05,6.21,27.44,-31.16,489
10846,-0.89,-0.29,0.04,13.82,30.8,-29.94,489
10866,-0.94,-0.21,-0.03,7.5,29.26,-35.36,489
10886,-0.88,-0.25,-0.04,3.3,31.08,-40.99,489
10906,-0.87,-0.39,0.02,10.11,32.94,-45.39,489
10927,-0.83,-0.39,-0.02,16.63,37.02,-44.95,489
10946,-0.88,-0.27,-0.12,12.49,37.37,-44.04,489
10967,-0.94,-0.3,-0.11,3.25,32.18,-52.64,489
10986,-0.92,-0.41,-0.03,4.44,32.45,-59.05,490
11006,-0.97,-0.44,0.04,21.76,45.66,-66.56,491
11026,-1.05,-0.36,0.13,43.68,55.28,-77.66,494
11046,-1.11,-0.24,0.08,42.03,59.4,-83.88,496
11066,-1.09,-0.29,0.06,31.18,54.31,-99.14,498
11086,-1.29,-0.52,0.33,50.37,68.57,-120.04,501
11106,-1.69,-0.44,0.3,98.89,91.98,-120.4,504
11126,-1.62,-0.38,0.53,124.69,76.47,-145.34,506
11146,-1.15,-0.42,0.25,113.19,85.64,-150.46,507
11166,-1.1,-0.38,-0.07,54.93,42.91,-118.44,508
11186,-0.99,-0.37,-0.29,-20.33,12.37,-93.68,508
11206,-0.64,-0.63,-0.41,-77.34,-3.08,-60.38,507
11227,-0.47,-0.7,-0.46,-81.01,-32.02,-25.14,506
11246,-0.11,-1.14,-0.51,-28.29,-15.43,5.25,506
11267,0.14,-1.09,-0.31,39.76,-6.94,51.89,506
11286,-0.41,-0.9,-0.11,69.54,-37.64,103.79,506
11307,-0.09,-0.59,-0.25,54.99,-71.44,148.35,505
11326,-0.22,-0.63,-0.13,33.91,-72.92,181.48,503
11346,-0.29,-0.72,-0.13,11.51,-98.1,207.44,503
11366,-0.34,-0.72,-0.14,-17.04,-106.47,223.93,501
11386,-0.53,-0.67,-0.03,-29.11,-121.87,234.73,499
11406,-0.62,-0.64,0.02,-45.08,-142.3,244.51,497
11426,-0.63,-0.75,0.01,-66.55,-150.4,234.28,495
11446,-0.76,-0.74,0.15,-66.17,-148.79,220.08,492
11466,-0.96,-0.57,0.27,-42.75,-127.81,223.22,489
11486,-0.88,-0.53,0.14,5.36,-86.4,178.8,487
11506,-0.94,-0.37,-0.05,54.57,-37.66,128.83,486
11526,-0.91,0.05,0.02,67.89,-14.69,102.28,487
11546,-0.87,0.14,0.06,52.12,7.43,43.15,487
11567,-0.91,0.11,0.05,26.52,16.83,7.85,486
11586,-0.87,0.08,0.02,-5.95,22.13,-32.06,486
11607,-0.84,-0.05,-0.01,-49.46,20.16,-65.62,486
11626,-0.73,-0.34,0.03,-83.5,25.98,-86.12,486
11646,-1.37,-0.27,0.84,-61.25,40.86,-36.38,486
11666,-1.7,-0.26,0.34,-85.16,-25.26,-19.56,489
11686,-0.62,-0.42,-0.19,-75.5,25.6,-81.39,489
11706,-0.75,-0.44,-0.16,-76.32,31.15,-72.18,488
11726,-0.6,-0.58,-0.03,-38.98,28.05,-24.69,488
11746,-0.83,-0.68,0.07,16.67,57.35,-39.66,491
11766,-1.02,-0.41,0.12,20.06,52.88,-49.65,490
11786,-0.9,-0.29,-0.02,6.02,42.11,-38.47,491
11806,-0.78,-0.34,-0.14,9.89,50.08,-42.11,490
11826,-0.96,-0.43,-0.05,23.63,51.28,-44.98,490
11846,-0.93,-0.29,-0.11,19.57,42.48,-37.24,490
11867,-0.89,-0.3,-0.05,10.83,35.46,-39.37,490
11886,-0.92,-0.29,0.0,-4.18,25.69,-36.35,490
11907,-0.87,-0.41,-0.01,-6.93,27.23,-40.81,491
11926,-0.88,-0.5,-0.07,1.16,26.33,-35.85,490
11947,-0.79,-0.5,-0.1,8.31,24.8,-31.05,490
11966,-0.81,-0.5,-0.05,12.92,27.49,-28.29,490
11986,-0.85,-0.48,0.02,16.34,29.02,-27.28,490
12006,-0.87,-0.4,0.01,19.41,29.63,-24.44,490
12026,-0.95,-0.25,0.03,24.81,30.74,-28.91,490
12046,-0.94,-0.1,0.05,23.94,30.31,-33.98,490
12066,-0.93,-0.03,-0.04,17.45,31.38,-39.85,490
12086,-0.94,-0.09,-0.03,11.22,31.32,-50.62,490
12106,-0.93,-0.22,-0.02,6.87,31.69,-56.55,491
12126,-0.87,-0.34,-0.03,3.54,31.09,-61.1,491
12146,-0.86,-0.36,-0.08,1.71,31.31,-63.92,492
12166,-0.9,-0.34,-0.02,-2.03,31.53,-71.3,493
12186,-1.0,-0.37,0.03,-0.21,37.78,-78.67,494
12207,-1.08,-0.39,0.13,12.87,43.63,-91.17,497
12226,-1.22,-0.36,0.15,29.24,56.1,-104.73,500
12247,-1.45,-0.36,0.17,55.73,70.48,-120.7,502
12266,-1.71,-0.49,0.41,79.37,74.89,-138.26,506
12286,-1.51,-0.47,0.47,104.14,75.72,-147.04,507
12306,-1.27,-0.28,0.17,82.93,57.2,-120.98,508
12326,-0.8,-0.39,-0.26,-1.53,-1.38,-89.43,508
12346,-0.4,-0.64,-0.35,-73.75,-15.05,-91.56,506
12366,-0.4,-1.05,-0.54,-67.04,5.72,-66.26,506
12386,-0.21,-1.03,-0.3,-26.99,5.11,-26.73,506
12406,-0.13,-0.91,-0.47,12.63,0.19,17.93,506
12426,-0.23,-0.64,-0.15,39.68,-0.5,62.12,506
12446,-0.36,-0.76,-0.1,39.91,-52.94,123.13,505
12466,-0.16,-0.72,-0.17,38.92,-65.34,157.57,505
12486,-0.44,-0.65,-0.1,34.14,-72.51,187.85,504
12507,-0.52,-0.57,-0.1,-1.82,-100.31,209.13,503
12526,-0.54,-0.64,-0.09,-30.49,-113.27,218.08,501
12547,-0.69,-0.65,0.04,-35.39,-123.43,224.31,500
12566,-0.72,-0.71,0.06,-44.95,-141.06,226.28,498
12587,-0.64,-0.7,0.07,-48.47,-138.22,223.71,495
12606,-0.77,-0.65,0.22,-37.01,-123.46,215.36,492
12626,-0.88,-0.44,0.24,-17.59,-113.14,216.55,489
12646,-0.88,-0.53,0.07,11.86,-80.24,170.34,487
12666,-0.94,-0.26,0.15,27.07,-62.62,146.83,484
12686,-0.86,0.08,0.07,19.19,-40.98,121.99,484
12706,-1.01,0.16,0.06,8.54,-14.66,54.81,484
12726,-0.89,0.07,0.12,-2.98,-5.37,13.05,484
12746,-0.77,0.11,-0.03,-20.03,13.0,-33.8,484
12766,-0.8,0.0,-0.11,-54.32,18.62,-73.48,484
12786,-0.67,-0.35,-0.1,-82.17,27.76,-99.78,485
12806,-0.79,-0.64,0.38,-50.18,34.62,-80.2,485
12826,-1.52,-0.32,0.8,-12.73,37.05,-0.76,487
12847,-1.35,-0.11,0.25,-30.3,7.09,-54.11,489
12866,-0.75,-0.24,-0.12,-66.9,33.87,-81.1,490
12887,-0.66,-0.48,-0.14,-58.53,29.18,-53.75,490
12906,-0.79,-0.47,-0.01,2.6,52.74,-35.01,490
12926,-1.08,-0.15,0.02,-0.67,37.24,-39.8,491
12946,-0.95,-0.15,-0.06,-42.87,30.8,-44.56,491
12966,-0.74,-0.52,-0.05,-49.59,25.96,-44.49,490
12986,-0.79,-0.62,-0.05,-25.48,38.04,-38.44,490
13006,-1.02,-0.4,-0.14,-17.02,34.24,-26.82,490
13026,-0.87,-0.38,-0.17,-31.86,14.77,-24.87,490
13046,-0.79,-0.58,-0.01,-36.56,16.24,-32.49,489
13066,-0.8,-0.65,0.08,-17.68,25.52,-24.43,490
13086,-0.85,-0.56,0.02,7.96,31.35,-20.58,490
13106,-0.89,-0.39,-0.02,13.7,30.73,-18.04,489
13126,-0.87,-0.32,-0.04,13.25,29.02,-19.22,489
13147,-0.88,-0.34,0.01,16.5,30.4,-24.7,489
13166,-0.91,-0.32,-0.01,18.7,30.04,-24.11,488
13187,-0.91,-0.23,-0.01,13.82,29.29,-20.56,488
13206,-0.95,-0.11,0.06,14.52,30.04,-25.45,488
13227,-0.94,-0.05,0.03,6.31,30.42,-32.76,488
13246,-0.89,-0.11,0.02,4.29,32.39,-40.96,488
13266,-0.93,-0.08,0.02,8.32,37.15,-46.11,489
13286,-0.93,-0.05,-0.01,1.25,35.72,-52.11,489
13306,-0.89,-0.27,-0.1,-14.23,32.53,-62.64,489
13326,-0.84,-0.49,-0.09,-11.82,33.06,-67.8,490
13346,-0.83,-0.52,-0.05,6.73,44.24,-63.59,491
13366,-0.86,-0.42,-0.05,25.68,55.81,-67.48,492
13386,-1.04,-0.44,-0.03,28.99,59.31,-73.48,494
13406,-0.99,-0.55,0.13,32.18,54.63,-88.58,496
13426,-1.02,-0.74,0.51,62.9,71.64,-119.13,499
13446,-1.61,-0.67,0.7,125.16,106.16,-139.25,503
13466,-2.0,-0.43,0.6,183.92,117.6,-127.53,508
13487,-1.65,0.04,0.25,161.65,77.55,-151.62,510
13506,-0.99,-0.04,-0.31,58.79,57.26,-118.88,509
13527,-0.64,-0.29,-0.51,-65.22,0.36,-102.38,507
13546,-0.59,-0.61,-0.66,-116.33,5.96,-74.66,505
13566,-0.49,-1.09,-0.45,-81.82,-14.65,-51.62,505
13586,-0.3,-1.17,-0.53,-2.7,-20.66,12.11,506
13606,-0.01,-0.97,-0.14,53.42,-27.63,49.1,506
13626,-0.26,-0.72,-0.11,58.09,-52.25,105.28,506
13646,0.04,-0.64,-0.18,39.15,-77.79,153.47,504
13666,-0.08,-0.76,-0.14,23.15,-77.63,187.63,504
13686,-0.22,-0.78,-0.13,17.45,-100.13,219.39,503
13706,-0.31,-0.68,-0.06,0.34,-116.31,245.45,502
13726,-0.51,-0.74,-0.03,-20.18,-137.82,260.18,499
13746,-0.64,-0.66,0.04,-36.5,-145.34,266.11,497
13766,-0.84,-0.54,0.05,-78.99,-153.11,255.85,495
13787,-1.14,-0.53,0.2,-88.78,-169.85,237.44,491
13806,-1.03,-0.67,0.3,-43.48,-133.67,203.09,487
13827,-0.85,-0.36,0.33,-3.37,-89.76,168.06,485
13846,-0.72,0.13,-0.05,10.64,-42.66,130.31,485
13867,-1.02,0.26,0.02,13.74,-11.35,40.81,485
13886,-0.8,0.25,0.07,-16.47,-3.93,-4.99,485
13906,-0.68,0.07,-0.1,-43.3,13.43,-60.62,485
13926,-0.58,-0.24,-0.17,-62.61,24.33,-101.63,484
13946,-0.63,-0.54,0.22,-31.57,59.98,-100.4,484
13966,-1.73,-0.08,0.98,8.52,51.38,6.38,484
13986,-1.63,0.25,0.51,-39.51,-3.11,-9.37,489
14006,-0.78,-0.19,-0.11,-99.05,24.88,-101.86,489
14026,-0.7,-0.65,-0.31,-99.42,40.37,-114.11,489
14046,-0.71,-0.89,-0.3,-38.55,19.18,-37.04,488
14066,-0.72,-0.77,-0.02,30.83,60.22,-30.88,488
14086,-0.93,-0.45,0.31,25.86,59.08,-45.71,490
14106,-0.95,-0.21,0.08,-31.21,24.39,-23.92,490
14127,-0.69,-0.59,-0.15,-31.3,43.64,-40.2,489
14146,-0.93,-0.78,-0.15,15.65,42.56,-35.49,489
14167,-0.95,-0.28,-0.1,29.24,35.02,-14.87,490
14186,-0.92,-0.2,-0.0,15.28,31.69,-30.14,491
14206,-0.94,-0.37,0.03,-2.96,25.28,-25.56,490
14226,-0.83,-0.43,-0.07,-7.85,19.96,-23.62,489
14246,-0.88,-0.36,-0.04,-6.06,20.74,-22.66,490
14266,-0.87,-0.33,0.05,-2.26,19.5,-25.02,490
14286,-0.86,-0.35,0.05,3.18,25.28,-24.99,489
14306,-0.88,-0.33,0.05,8.83,26.99,-28.62,490
14326,-0.94,-0.25,0.04,10.31,25.81,-29.88,490
14346,-0.87,-0.29,-0.06,3.86,25.21,-31.65,490
14366,-0.91,-0.33,-0.04,6.54,25.02,-34.44,490
14386,-0.88,-0.31,-0.05,14.5,27.76,-36.35,490
14406,-0.85,-0.4,-0.03,16.78,27.95,-36.73,490
14427,-0.78,-0.48,-0.01,8.26,19.76,-34.95,490
14446,-0.82,-0.41,-0.03,-0.47,22.54,-32.58,490
14467,-0.96,-0.26,-0.09,-4.82,20.68,-33.27,490
14486,-0.96,-0.24,-0.1,-16.4,14.19,-37.42,491
14507,-0.9,-0.25,-0.04,-17.34,16.54,-43.77,492
14526,-0.96,-0.19,0.03,-6.66,25.52,-48.46,492
14546,-0.92,-0.36,0.1,2.99,29.76,-66.06,494
14566,-0.94,-0.4,0.18,22.92,47.2,-77.24,496
14586,-1.23,-0.19,0.29,45.97,59.49,-85.13,499
14606,-1.69,0.06,0.21,67.86,84.15,-98.61,502
14626,-2.0,-0.2,0.41,95.08,80.63,-142.03,506
14646,-1.4,-0.54,0.28,63.28,49.32,-175.89,507
14666,-0.64,-0.69,0.02,17.53,30.92,-120.4,506
14686,-0.37,-0.82,-0.32,-23.27,23.37,-89.11,504
14706,-0.31,-0.7,-0.54,-60.46,-12.07,-56.3,503
14726,-0.36,-0.8,-0.61,-66.93,11.09,-36.14,504
14746,-0.36,-1.1,-0.58,-22.01,-1.75,-16.61,504
14767,-0.21,-0.92,-0.03,42.58,-28.48,43.39,505
14786,-0.11,-0.86,-0.2,51.13,-55.24,93.59,504
14807,-0.12,-0.47,-0.18,32.84,-70.69,140.69,503
14826,-0.34,-0.52,-0.11,-13.69,-95.23,172.67,502
14846,-0.42,-0.7,-0.15,-49.11,-119.4,205.13,501
14866,-0.61,-0.82,-0.03,-56.9,-127.66,215.94,500
14886,-0.77,-0.71,0.01,-59.27,-143.18,221.63,498
14906,-0.78,-0.7,-0.03,-70.32,-135.47,205.99,496
14926,-0.85,-0.64,0.05,-69.72,-137.06,180.61,493
14946,-0.91,-0.52,0.14,-58.3,-115.0,173.13,491
14966,-0.67,-0.61,0.04,-24.87,-78.65,126.34,489
14986,-0.78,-0.54,-0.07,11.99,-26.11,86.73,488
15006,-0.94,-0.19,-0.02,18.46,-17.26,56.61,488
15026,-0.71,-0.13,-0.11,-8.53,0.11,-5.16,489
15046,-0.41,-0.4,-0.08,-34.46,12.76,-48.33,487
15067,-0.83,-0.17,0.55,-10.41,47.86,-19.37,484
15086,-2.0,-0.05,0.33,-42.79,-4.25,61.1,487
15107,-0.68,-0.34,-0.05,-45.74,-7.99,-54.66,487
15126,-0.63,-0.42,0.08,-65.54,19.28,-29.37,486
15147,-0.81,-0.53,-0.23,-21.13,23.86,7.6,486
15166,-1.2,-0.54,-0.11,9.99,26.01,-14.32,489
15186,-0.87,-0.23,-0.01,-2.11,9.44,-6.53,487
15206,-0.92,-0.35,-0.03,-11.8,17.29,-9.86,487
15226,-0.94,-0.46,-0.11,-7.04,6.8,-2.52,488
15246,-0.9,-0.37,-0.04,-5.3,5.66,-0.2,487
15266,-0.91,-0.25,0.16,-3.74,5.57,0.43,487
15286,-0.93,-0.16,0.19,-3.8,4.74,5.02,488
15306,-0.99,0.06,0.04,-11.42,5.84,3.15,488
15326,-0.9,-0.07,0.01,-20.78,2.62,-9.51,488
15346,-0.98,-0.3,0.06,-14.76,3.32,-8.3,488
15366,-0.93,-0.26,0.01,-12.99,2.21,-8.2,488
15386,-0.95,-0.17,-0.06,-12.64,6.11,-11.89,488
15407,-0.97,-0.19,0.1,-2.72,2.92,-10.18,487
15426,-0.91,-0.3,0.04,6.72,10.73,-9.82,487
15447,-1.03,-0.22,-0.06,-5.37,-3.11,-12.7,487
15466,-0.82,-0.36,-0.06,-6.15,-0.66,-17.33,486
15486,-0.9,-0.45,0.04,10.5,1.61,-13.75,487
15506,-0.92,-0.3,0.03,13.39,3.58,-7.94,487
15526,-0.91,-0.3,0.04,10.03,3.99,-13.94,487
15546,-0.94,-0.28,0.13,7.99,-5.76,-3.86,487
15566,-0.88,-0.09,0.04,-11.65,-8.31,-2.18,487
15586,-0.99,-0.25,0.07,-26.75,-11.15,-8.87,486
15606,-0.91,-0.37,0.07,-13.85,-12.3,-5.05,486
15626,-0.81,-0.33,0.1,-7.05,-9.69,-2.69,487
15646,-0.82,-0.38,0.17,1.1,-1.05,-6.41,486
15666,-0.93,-0.38,0.06,1.28,-5.03,-3.1,487
15686,-0.81,-0.44,0.06,9.56,0.01,-2.29,486
15707,-0.92,-0.3,0.08,18.4,8.57,-4.59,487
15726,-0.99,-0.18,0.1,14.55,5.47,-4.69,487
15747,-0.89,-0.24,0.08,11.57,2.69,-4.93,486
15766,-0.9,-0.11,0.07,-0.47,-0.69,-1.98,486
15787,-0.93,-0.24,-0.01,-10.82,2.25,-5.98,486
15806,-0.91,-0.42,0.07,-5.04,-3.53,-6.47,486
15826,-0.85,-0.39,0.08,1.31,-1.21,-1.6,486
15846,-0.88,-0.35,0.08,1.47,1.4,-5.45,486
15866,-0.91,-0.25,0.09,-5.77,-2.16,-1.36,487
15886,-0.95,-0.33,0.04,-9.19,-0.36,-2.0,486
15906,-0.88,-0.34,0.14,0.35,-3.35,-1.02,486
15926,-0.9,-0.29,0.09,2.25,6.25,-2.73,487
15946,-0.91,-0.35,0.04,-3.56,-2.25,0.73,486
15966,-0.85,-0.41,0.11,1.47,2.21,-2.69,486
15986,-0.89,-0.3,0.12,9.91,3.35,-1.98,487
16006,-0.95,-0.23,0.06,8.96,6.01,-1.88,487
16026,-0.88,-0.28,0.05,8.15,3.75,-2.66,487
16047,-0.94,-0.24,0.08,9.86,8.33,-5.4,486
16066,-0.93,-0.27,0.04,3.7,1.05,-2.75,487
16087,-0.89,-0.35,0.05,-5.94,-1.44,-2.72,486
16106,-0.87,-0.42,0.08,-3.62,-1.01,-3.36,486
16126,-0.93,-0.3,0.08,2.08,1.78,-3.2,487
16146,-0.9,-0.29,0.06,1.34,-0.68,-3.49,486
16166,-0.89,-0.28,0.05,0.06,0.44,-2.29,486
16186,-0.92,-0.33,0.06,-0.18,0.89,-3.45,487
16206,-0.89,-0.31,0.08,0.38,-0.13,-3.36,487
16226,-0.92,-0.3,0.09,1.51,2.59,-0.64,486
16246,-0.92,-0.34,-0.01,-4.44,-1.95,0.35,486
16266,-0.86,-0.41,0.05,-4.0,-3.61,0.28,487
16286,-0.87,-0.36,0.09,-1.24,-0.42,-0.2,486
