Time,AccX,AccY,AccZ,GyroX,GyroY,GyroZ,Capacitance
7266,-0.92,-0.27,0.02,2.41,-4.59,2.65,480
7286,-0.92,-0.24,0.05,5.28,-2.39,1.99,478
7306,-0.93,-0.22,0.08,4.01,-2.93,1.85,478
7326,-0.93,-0.22,0.06,1.34,-3.6,0.46,478
7346,-0.93,-0.21,0.04,1.27,-3.49,-0.26,478
7366,-0.94,-0.19,0.05,0.4,-2.84,-1.95,478
7387,-0.94,-0.21,0.06,-0.17,-3.17,-3.57,478
7406,-0.94,-0.19,0.06,-1.41,-4.85,-5.26,478
7427,-0.94,-0.16,0.05,-2.73,-5.39,-7.22,478
7446,-0.93,-0.2,0.05,-2.89,-4.87,-9.8,478
7467,-0.94,-0.23,0.07,-1.94,-4.47,-11.87,478
7486,-0.92,-0.25,0.07,-0.63,-4.29,-13.39,478
7506,-0.93,-0.24,0.08,0.36,-4.96,-14.73,478
7526,-0.91,-0.24,0.07,0.26,-7.35,-16.47,478
7546,-0.92,-0.24,0.03,2.73,-5.14,-20.35,479
7566,-0.96,-0.24,0.1,4.62,-5.58,-19.54,479
7586,-0.92,-0.24,0.08,3.85,-6.73,-21.39,479
7606,-0.93,-0.28,0.07,8.47,-6.24,-26.16,480
7626,-0.95,-0.32,0.14,26.01,-0.13,-34.38,480
7646,-0.98,-0.19,0.14,38.94,-3.28,-35.35,481
7666,-0.96,0.04,0.16,35.07,0.71,-37.69,482
7686,-1.02,0.06,0.18,18.36,3.12,-46.09,482
7706,-1.07,-0.12,0.2,1.31,4.92,-55.03,483
7727,-0.97,-0.41,0.15,0.21,8.72,-58.44,483
7746,-0.85,-0.52,0.13,10.61,14.86,-53.87,483
7767,-0.82,-0.54,0.11,21.81,18.45,-42.85,483
7786,-0.87,-0.38,0.17,13.01,12.97,-10.35,482
7806,-0.8,-0.37,0.08,-3.97,-0.36,25.16,481
7826,-0.78,-0.52,0.1,1.11,-4.64,50.26,481
7846,-0.79,-0.43,0.16,9.04,-10.97,76.92,482
7866,-0.84,-0.28,0.15,1.48,-16.42,97.1,482
7886,-0.91,-0.27,0.17,-11.36,-20.93,108.92,482
7906,-0.92,-0.25,0.16,-18.66,-22.38,114.28,483
7926,-0.92,-0.26,0.13,-23.04,-22.33,116.32,482
7946,-0.89,-0.27,0.15,-19.94,-22.01,115.84,482
7966,-0.85,-0.24,0.18,-12.25,-16.21,111.04,482
7986,-0.9,-0.22,0.11,-2.09,-11.74,96.16,481
8006,-0.93,-0.18,0.17,10.09,-4.35,82.03,481
8027,-0.88,-0.06,0.15,13.51,-3.16,67.27,480
8046,-0.93,-0.05,0.12,6.7,-2.67,50.2,480
8067,-0.91,-0.08,0.18,-6.02,-7.87,37.44,480
8086,-0.93,-0.1,0.12,-18.51,-15.78,20.83,480
8107,-0.98,-0.08,0.09,-28.98,-13.28,3.21,480
8126,-0.93,-0.09,0.1,-43.25,-17.98,-11.49,480
8146,-0.84,-0.2,0.02,-52.32,-16.09,-28.7,480
8166,-0.82,-0.39,-0.04,-52.83,-6.73,-44.68,479
8186,-0.87,-0.51,-0.03,-27.74,11.23,-49.66,479
8206,-1.22,-0.26,0.37,18.17,39.7,-21.87,480
8226,-1.1,0.06,0.41,-6.2,4.49,-19.39,481
8246,-0.86,-0.06,0.2,-38.77,-12.32,-39.68,481
8266,-0.85,-0.3,0.15,-42.96,-6.97,-36.76,481
8286,-1.01,-0.49,-0.06,-7.22,13.26,-30.62,481
8306,-0.89,-0.2,-0.01,7.75,18.29,-32.39,481
8326,-0.8,-0.16,0.24,-4.14,19.59,-28.32,481
8346,-0.94,-0.33,0.31,1.17,18.51,-28.13,480
8367,-0.9,-0.19,0.2,-9.5,10.68,-22.48,480
8386,-0.88,-0.28,0.07,-9.56,16.22,-25.43,480
8407,-0.93,-0.25,0.03,-3.39,19.55,-22.52,480
8426,-0.91,-0.2,0.07,-6.44,22.02,-21.49,479
8446,-0.93,-0.21,0.15,-5.09,20.02,-24.47,479
8466,-0.93,-0.16,0.08,-6.02,18.22,-23.49,479
8486,-0.88,-0.37,-0.01,-10.0,17.32,-23.48,479
8506,-0.92,-0.5,-0.02,4.32,22.61,-23.8,479
8526,-0.92,-0.32,-0.02,12.84,22.81,-19.63,479
8546,-0.93,-0.23,-0.01,8.82,19.32,-20.09,478
8566,-0.94,-0.21,-0.01,1.45,15.71,-21.02,478
8586,-0.93,-0.23,-0.02,3.3,14.31,-23.11,478
8606,-0.92,-0.19,0.0,7.88,16.66,-24.97,477
8626,-0.94,-0.15,0.02,6.01,14.97,-28.27,477
8646,-0.94,-0.14,0.01,1.51,12.61,-32.0,477
8667,-0.91,-0.17,-0.05,-7.12,10.11,-31.49,476
8686,-0.88,-0.27,-0.05,-10.92,10.49,-34.96,476
8707,-0.92,-0.29,-0.01,-12.26,8.03,-34.24,477
8726,-0.89,-0.34,-0.0,-18.67,4.13,-33.87,476
8747,-0.87,-0.39,-0.01,-20.19,2.26,-33.39,476
8766,-0.84,-0.41,0.03,-14.92,5.18,-34.81,476
8786,-0.86,-0.41,0.04,-3.01,7.94,-36.38,476
8806,-0.87,-0.35,-0.02,-3.24,6.57,-35.86,476
8826,-0.87,-0.48,-0.04,-10.81,4.43,-37.0,476
8846,-0.85,-0.52,-0.02,-8.38,4.58,-35.81,476
8866,-0.87,-0.43,-0.01,-1.51,8.34,-37.37,476
8886,-0.89,-0.37,0.0,7.16,13.27,-41.8,476
8906,-0.92,-0.31,-0.06,15.59,18.84,-48.55,477
8926,-1.02,-0.2,-0.12,20.62,22.57,-52.19,477
8946,-1.3,-0.14,0.04,20.67,28.81,-65.42,478
8966,-1.23,-0.3,0.19,41.05,29.56,-92.1,480
8986,-1.12,-0.38,0.39,94.2,44.49,-123.08,484
9007,-1.29,-0.25,0.37,124.65,54.66,-137.45,488
9026,-1.48,-0.17,0.33,120.04,51.64,-141.61,491
9047,-1.41,-0.16,0.35,110.0,44.29,-151.22,493
9066,-1.05,-0.18,0.25,75.52,31.79,-135.48,492
9086,-0.8,-0.35,0.11,13.72,-12.56,-102.96,489
9106,-0.56,-0.49,-0.25,-55.04,-26.48,-78.73,486
9126,-0.49,-0.85,-0.52,-91.06,-45.06,-64.29,483
9146,-0.44,-1.13,-0.19,-31.02,0.71,-42.93,483
9166,-0.39,-1.2,-0.07,64.58,8.13,13.55,484
9186,-0.36,-0.73,-0.06,100.98,10.98,68.54,484
9206,-0.44,-0.45,-0.01,71.56,-7.89,114.86,483
9226,-0.44,-0.46,0.02,3.46,-35.92,150.43,482
9246,-0.48,-0.64,0.05,-42.12,-63.77,181.71,481
9266,-0.44,-0.77,0.15,-39.79,-56.7,207.0,481
9286,-0.45,-0.84,0.19,-2.52,-32.94,219.78,483
9307,-0.62,-0.65,0.25,7.04,-25.81,230.75,484
9326,-0.69,-0.47,0.24,-23.64,-39.14,242.98,484
9347,-0.8,-0.48,0.17,-53.25,-47.55,248.37,483
9366,-0.92,-0.57,0.18,-52.14,-51.51,239.59,481
9387,-0.88,-0.34,0.2,-36.63,-44.48,232.29,479
9406,-0.94,-0.29,0.15,-41.13,-47.16,194.1,477
9426,-1.05,-0.39,0.25,-37.89,-41.31,166.74,477
9446,-0.89,-0.34,0.08,-19.5,-33.77,128.48,477
9466,-0.92,-0.08,0.03,9.81,-6.61,75.81,478
9486,-1.04,0.23,0.06,-1.62,-8.91,30.11,477
9506,-0.96,0.08,-0.13,-30.06,-21.32,-26.68,477
9526,-0.75,-0.24,-0.09,-35.83,-10.38,-74.18,477
9546,-0.65,-0.75,0.03,-25.67,-0.71,-103.02,477
9566,-1.23,-0.38,0.17,84.56,115.67,-51.17,477
9586,-1.61,0.23,0.28,64.3,21.27,-22.48,480
9606,-0.85,0.03,0.05,10.96,-1.9,-93.05,480
9626,-0.82,-0.12,0.2,-66.99,0.0,-70.48,478
9647,-0.68,-0.47,-0.07,-75.25,3.35,-35.28,479
9666,-0.89,-0.97,-0.01,4.91,38.16,-57.51,478
9687,-0.79,-0.24,0.25,24.43,42.1,-51.63,479
9706,-0.98,-0.08,0.25,-0.83,33.42,-39.06,479
9726,-0.89,-0.2,0.05,-29.22,14.32,-36.39,478
9746,-0.79,-0.57,-0.07,-15.28,26.07,-42.91,478
9766,-0.97,-0.55,-0.08,28.09,40.69,-42.68,478
9786,-0.97,-0.17,-0.06,30.87,35.2,-37.71,478
9806,-0.91,-0.2,0.03,16.98,30.07,-42.61,478
9826,-0.94,-0.29,0.09,14.47,21.58,-41.68,478
9846,-0.86,-0.29,0.03,8.46,19.68,-35.08,479
9866,-0.85,-0.43,-0.03,6.47,21.03,-33.37,478
9886,-0.91,-0.49,-0.01,15.97,22.57,-32.79,478
9906,-0.87,-0.37,0.04,24.12,23.87,-33.0,478
9926,-0.92,-0.26,0.07,28.91,21.2,-34.53,478
9947,-0.91,-0.15,-0.05,14.76,16.6,-26.7,478
9966,-0.92,-0.18,-0.09,-5.15,12.51,-28.41,478
9987,-0.96,-0.28,-0.01,-11.53,5.87,-32.36,478
10006,-0.87,-0.29,0.02,-10.28,6.16,-33.68,478
10027,-0.87,-0.3,0.01,-7.57,7.65,-36.09,479
10046,-0.9,-0.28,0.01,-5.38,5.35,-36.56,478
10066,-0.88,-0.3,-0.07,-6.34,4.87,-37.74,478
10086,-0.88,-0.3,-0.03,-3.53,7.85,-41.98,477
10106,-0.91,-0.35,0.04,0.04,7.59,-47.06,477
10126,-0.91,-0.42,0.04,7.19,10.8,-52.96,478
10146,-0.9,-0.36,-0.02,8.73,11.32,-54.79,478
10166,-0.92,-0.33,-0.02,7.94,13.9,-59.87,478
10186,-1.0,-0.32,0.02,20.49,22.28,-69.43,480
10206,-1.08,-0.17,0.12,33.23,24.77,-80.79,481
10226,-1.17,-0.11,0.09,34.76,25.23,-96.04,483
10246,-1.42,-0.3,0.18,39.33,26.86,-112.29,487
10266,-1.58,-0.41,0.35,64.21,30.42,-134.0,491
10287,-1.67,-0.28,0.46,119.04,49.47,-158.45,494
10306,-1.56,-0.01,0.53,128.2,48.81,-159.0,495
10327,-1.12,-0.09,0.38,85.43,24.71,-137.8,493
10346,-0.6,-0.48,0.02,-14.96,-26.76,-103.29,486
10366,-0.39,-0.79,-0.75,-92.95,-76.76,-67.17,481
10386,-0.16,-1.07,-0.51,-66.12,-3.64,-60.22,480
10406,-0.38,-1.28,-0.16,40.64,23.81,-19.58,484
10426,-0.26,-1.02,-0.02,97.94,8.97,51.1,484
10446,-0.28,-0.42,-0.05,91.66,2.05,107.59,483
10466,-0.26,-0.39,-0.08,24.59,-24.64,149.12,483
10486,-0.38,-0.57,0.01,-46.75,-49.37,176.22,482
10506,-0.42,-0.8,0.12,-64.87,-62.77,205.47,481
10526,-0.33,-0.89,0.13,-34.81,-50.77,230.92,482
10546,-0.45,-0.85,0.16,-0.38,-28.64,236.97,483
10566,-0.62,-0.63,0.22,-17.83,-44.06,246.25,483
10587,-0.68,-0.47,0.19,-47.71,-53.25,258.17,483
10606,-0.88,-0.44,0.08,-59.89,-53.46,252.78,481
10627,-1.1,-0.44,0.22,-52.67,-47.25,232.46,480
10646,-0.94,-0.3,0.32,-47.94,-45.83,209.38,478
10667,-0.93,-0.33,0.17,-34.96,-34.27,159.67,478
10686,-1.0,-0.27,0.15,-6.58,-12.79,131.27,477
10706,-1.01,-0.01,0.05,6.93,-6.79,93.1,477
10726,-1.06,0.07,0.08,-0.14,0.4,48.58,477
10746,-1.0,0.0,-0.01,-1.57,-2.88,3.24,477
10766,-0.96,-0.04,-0.03,-2.95,1.99,-39.23,477
10786,-0.94,-0.08,-0.0,-21.65,3.61,-71.02,476
10806,-0.88,-0.34,0.0,-41.22,1.53,-92.88,477
10826,-1.11,-0.49,0.32,9.63,64.07,-62.73,478
10846,-1.3,0.08,0.47,-1.68,7.26,-23.05,477
10866,-0.94,0.1,0.09,-65.73,-30.24,-63.45,478
10886,-0.8,-0.29,-0.05,-110.66,-15.25,-80.99,478
10906,-0.73,-0.8,0.05,-86.49,-2.15,-49.84,479
10927,-0.65,-0.79,0.01,17.46,47.47,-46.19,479
10946,-0.88,-0.08,0.26,31.74,55.94,-43.06,478
10967,-1.07,0.12,0.25,-11.83,33.21,-41.61,479
10986,-0.93,-0.21,0.06,-35.89,17.84,-47.2,478
11006,-0.79,-0.54,-0.11,-16.38,27.88,-46.16,477
11026,-0.89,-0.51,-0.15,10.29,37.15,-46.26,476
11046,-0.93,-0.31,-0.04,2.52,26.22,-35.32,476
11066,-0.86,-0.35,0.04,-14.81,17.52,-35.63,476
11086,-0.86,-0.53,0.08,-10.67,16.6,-35.66,476
11106,-0.84,-0.49,0.05,4.99,21.52,-32.45,477
11126,-0.89,-0.32,-0.0,16.64,24.43,-30.33,477
11146,-0.95,-0.29,0.02,22.88,22.11,-34.45,478
11166,-0.91,-0.25,0.02,30.98,22.1,-38.94,477
11186,-0.91,-0.18,0.0,36.53,24.77,-42.06,477
11206,-0.95,-0.11,0.0,35.4,23.68,-46.44,477
11227,-0.93,-0.1,-0.06,22.82,20.61,-45.81,477
11246,-0.89,-0.2,-0.05,6.18,13.81,-45.35,477
11267,-0.91,-0.36,0.02,7.19,13.47,-52.97,477
11286,-0.88,-0.35,0.06,22.03,16.25,-57.39,478
11307,-0.89,-0.3,0.01,28.96,19.2,-60.44,478
11326,-0.89,-0.26,0.01,23.13,18.66,-65.58,478
11346,-0.95,-0.29,-0.02,24.91,23.71,-70.16,479
11366,-0.98,-0.3,-0.06,28.12,29.33,-74.68,480
11386,-1.02,-0.32,0.02,25.1,23.73,-83.54,482
11406,-0.97,-0.3,0.13,16.93,19.59,-89.16,484
11426,-1.01,-0.41,0.19,21.83,25.65,-98.97,486
11446,-1.15,-0.47,0.14,41.4,32.23,-108.68,488
11466,-1.35,-0.42,0.14,56.41,37.1,-119.26,490
11486,-1.84,-0.32,0.38,71.69,36.97,-126.21,493
11506,-1.73,-0.15,0.47,99.51,50.29,-147.9,495
11526,-1.36,-0.15,0.36,91.72,42.98,-144.76,495
11546,-0.73,-0.58,-0.02,22.82,-17.58,-117.64,490
11567,-0.4,-0.66,-0.46,-46.84,-22.19,-84.9,484
11586,-0.32,-0.94,-0.68,-71.8,-60.87,-60.29,481
11607,-0.12,-1.06,-0.33,-17.97,-6.41,-45.57,483
11626,-0.17,-1.07,0.0,56.44,9.78,3.64,483
11646,-0.29,-0.83,0.08,77.48,-6.84,68.43,482
11666,-0.27,-0.55,0.02,53.81,-28.39,117.47,482
11686,-0.28,-0.59,0.04,8.5,-42.65,146.31,483
11706,-0.36,-0.65,0.03,-28.78,-63.11,168.52,481
11726,-0.34,-0.8,0.04,-51.62,-75.98,197.19,481
11746,-0.29,-0.77,0.18,-32.38,-56.01,227.12,482
11766,-0.47,-0.83,0.12,20.64,-22.04,233.42,483
11786,-0.68,-0.62,0.19,13.51,-24.01,241.7,484
11806,-0.7,-0.41,0.2,-27.77,-37.46,252.43,484
11826,-0.77,-0.46,0.15,-54.15,-43.03,252.0,482
11846,-0.92,-0.51,0.21,-51.22,-36.87,246.69,481
11867,-0.95,-0.37,0.18,-39.35,-35.45,228.22,479
11886,-0.98,-0.39,0.22,-27.19,-18.84,193.79,478
11907,-0.93,-0.24,0.13,-18.99,-16.13,170.0,477
11926,-0.98,-0.06,-0.01,-3.79,-4.88,117.65,477
11947,-1.04,0.15,0.14,-2.98,2.37,71.04,477
11966,-1.0,0.26,0.05,-19.19,-2.94,18.34,477
11986,-0.97,0.17,-0.01,-48.25,-6.56,-34.53,476
12006,-0.89,-0.19,0.02,-77.45,-19.08,-74.96,476
12026,-0.68,-0.68,-0.01,-64.95,-9.02,-106.35,476
12046,-1.32,-0.45,0.24,50.24,105.53,-57.55,478
12066,-1.55,0.29,0.31,45.97,15.23,-12.94,479
12086,-0.86,0.21,0.03,-15.1,-13.74,-86.68,479
12106,-0.72,-0.23,0.14,-102.48,-15.08,-83.58,478
12126,-0.54,-0.67,-0.0,-91.94,-1.89,-35.48,478
12146,-0.9,-0.91,0.09,18.43,52.34,-56.85,478
12166,-0.93,-0.17,0.17,31.07,46.37,-51.87,478
12186,-0.93,-0.09,0.16,5.91,35.18,-54.99,478
12207,-0.88,-0.47,0.03,4.96,25.45,-50.12,477
12226,-0.8,-0.5,-0.13,18.94,30.45,-46.29,477
12247,-0.96,-0.39,-0.11,27.11,36.65,-48.77,477
12266,-0.99,-0.27,-0.07,15.52,23.91,-42.01,477
12286,-0.88,-0.3,0.03,-2.95,13.49,-39.69,477
12306,-0.88,-0.41,0.06,1.52,17.21,-40.91,478
12326,-0.91,-0.35,-0.04,14.98,17.58,-40.3,478
12346,-0.92,-0.26,-0.06,15.23,15.99,-37.32,478
12366,-0.92,-0.26,-0.03,11.88,17.91,-36.24,478
12386,-0.89,-0.35,0.02,7.59,13.76,-34.33,478
12406,-0.84,-0.41,0.05,11.62,16.89,-34.39,478
12426,-0.9,-0.32,0.04,10.49,14.25,-32.91,478
12446,-0.89,-0.3,0.02,10.47,14.02,-34.45,478
12466,-0.93,-0.27,0.02,10.93,13.41,-35.64,478
12486,-0.92,-0.21,0.0,9.66,10.84,-39.48,479
12507,-0.9,-0.19,-0.01,4.96,8.11,-43.02,479
12526,-0.9,-0.26,-0.01,3.81,7.15,-47.05,479
12547,-0.89,-0.32,0.0,7.01,7.36,-50.12,479
12566,-0.88,-0.32,-0.05,6.84,8.2,-50.85,479
12587,-0.89,-0.31,-0.01,3.78,8.29,-55.57,479
12606,-0.92,-0.29,0.04,0.81,8.43,-60.73,479
12626,-0.97,-0.28,0.05,2.4,10.08,-69.45,480
12646,-1.0,-0.25,0.05,15.46,17.41,-80.73,482
12666,-1.12,-0.18,0.1,27.71,24.03,-93.39,484
12686,-1.28,-0.21,-0.04,31.42,25.96,-105.9,487
12706,-1.61,-0.2,0.2,38.07,29.01,-122.1,490
12726,-1.65,-0.17,0.31,66.87,41.99,-147.49,494
12746,-1.65,-0.2,0.33,101.83,55.53,-164.24,496
12766,-1.36,-0.33,0.2,96.11,51.26,-159.98,495
12786,-0.77,-0.54,0.15,46.85,12.31,-134.13,492
12806,-0.22,-0.74,-0.33,-15.88,-14.85,-90.19,484
12826,0.07,-1.08,-0.54,-22.9,-26.88,-53.51,481
12847,-0.35,-0.99,-0.01,32.01,38.37,-10.64,482
12866,-0.52,-0.99,0.23,42.26,7.13,44.92,484
12887,-0.18,-0.79,0.1,41.6,-23.05,88.39,481
12906,-0.26,-0.58,0.02,24.29,-27.78,128.11,482
12926,-0.42,-0.54,0.1,-23.48,-44.77,156.03,482
12946,-0.44,-0.67,0.05,-64.51,-73.35,184.22,480
12966,-0.37,-0.83,0.1,-61.06,-69.17,210.19,481
12986,-0.4,-0.92,0.13,-3.3,-40.55,222.34,482
13006,-0.51,-0.71,0.21,12.04,-36.01,234.74,483
13026,-0.6,-0.5,0.22,-14.86,-44.9,249.0,484
13046,-0.73,-0.43,0.23,-49.77,-49.48,258.86,483
13066,-0.86,-0.41,0.19,-64.61,-49.6,255.26,482
13086,-0.96,-0.38,0.09,-54.43,-46.64,232.28,480
13106,-1.05,-0.44,0.19,-29.96,-26.48,204.77,478
13126,-0.97,-0.19,0.14,-11.5,-20.91,169.27,478
13147,-1.01,-0.05,-0.03,8.32,-6.51,109.18,478
13166,-1.01,0.14,0.06,16.15,5.29,67.23,478
13187,-1.02,0.2,0.04,2.4,2.49,14.75,477
13206,-0.97,0.1,-0.01,-22.86,2.32,-30.77,477
13227,-0.91,-0.1,0.0,-53.15,-9.42,-63.75,477
13246,-0.8,-0.38,0.0,-71.5,-11.23,-88.9,476
13266,-0.69,-0.71,0.11,-51.36,10.31,-91.8,477
13286,-1.67,-0.22,0.75,30.36,99.7,-26.12,478
13306,-1.19,0.28,0.24,-35.39,-26.06,-35.83,480
13326,-0.73,-0.24,-0.04,-69.62,-25.08,-88.24,480
13346,-0.73,-0.49,0.04,-86.6,3.79,-66.93,479
13366,-0.73,-0.5,-0.04,-71.65,6.51,-29.92,478
13386,-0.84,-0.59,0.01,-4.15,40.17,-51.23,480
13406,-0.9,-0.23,0.29,7.33,48.6,-50.94,479
13426,-0.96,-0.2,0.21,-23.1,23.52,-37.48,479
13446,-0.8,-0.54,-0.01,-29.54,21.81,-43.22,478
13466,-0.81,-0.64,-0.1,-2.23,32.37,-42.85,477
13487,-0.94,-0.39,-0.12,23.94,38.36,-35.54,477
13506,-1.0,-0.16,-0.05,7.92,21.81,-31.78,477
13527,-0.9,-0.29,0.04,-11.47,12.72,-33.39,478
13546,-0.84,-0.44,0.07,2.11,21.04,-33.97,478
13566,-0.93,-0.31,0.02,19.98,24.83,-33.81,478
13586,-0.88,-0.28,-0.0,15.85,21.94,-29.71,477
13606,-0.88,-0.4,0.09,20.04,20.8,-35.63,477
13626,-0.9,-0.25,-0.03,30.3,26.14,-35.23,477
13646,-0.86,-0.23,-0.09,20.73,22.46,-31.83,476
13666,-0.93,-0.33,0.01,17.94,21.09,-37.93,476
13686,-0.93,-0.22,0.04,22.38,19.26,-39.22,477
13706,-0.93,-0.18,0.0,21.62,16.91,-47.08,477
13726,-0.95,-0.24,0.01,22.43,13.78,-53.57,478
13746,-0.91,-0.26,-0.02,26.62,19.39,-57.05,478
13766,-0.87,-0.28,-0.11,24.56,21.09,-56.07,478
13787,-0.93,-0.33,-0.01,24.81,20.61,-62.82,478
13806,-0.94,-0.35,-0.01,27.36,20.51,-66.96,478
13827,-0.99,-0.29,0.07,33.45,23.04,-75.54,479
13846,-1.04,-0.16,0.19,40.21,27.35,-87.6,481
13867,-1.13,-0.14,0.15,28.3,21.23,-96.36,484
13886,-1.01,-0.31,0.13,24.11,20.46,-108.35,486
13906,-1.12,-0.32,0.25,52.99,39.56,-123.68,489
13926,-1.5,-0.08,0.22,105.31,63.45,-144.64,493
13946,-2.0,-0.1,0.4,133.95,68.39,-161.58,497
13966,-1.99,-0.16,0.33,116.78,42.95,-166.44,498
13986,-0.97,-0.39,0.02,26.85,-9.75,-145.81,493
14006,-0.3,-0.68,-0.36,-66.72,-48.5,-98.42,485
14026,-0.01,-1.05,-0.63,-93.59,-76.85,-58.27,480
14046,0.02,-1.35,-0.42,-35.5,-5.57,-41.72,481
14066,-0.23,-1.19,-0.0,34.94,14.55,-1.37,483
14086,-0.14,-0.96,0.1,56.87,-9.51,55.16,481
14106,-0.09,-0.64,0.07,50.84,-25.37,107.85,480
14127,-0.14,-0.57,0.08,19.54,-38.93,146.37,482
14146,-0.23,-0.52,0.02,-36.89,-63.55,171.07,480
14167,-0.35,-0.61,0.12,-90.58,-95.64,205.47,480
14186,-0.27,-0.93,0.08,-81.7,-92.29,232.0,482
14206,-0.33,-1.03,0.05,-23.33,-49.46,242.43,482
14226,-0.54,-0.77,0.24,-20.14,-53.03,253.19,483
14246,-0.63,-0.56,0.22,-56.41,-70.96,265.36,482
14266,-0.83,-0.53,0.09,-77.71,-67.08,264.72,482
14286,-1.19,-0.54,0.07,-75.25,-60.91,227.71,480
14306,-1.11,-0.44,0.23,-61.24,-51.89,193.62,479
14326,-0.85,-0.35,0.05,-48.52,-37.66,130.51,478
14346,-0.87,-0.3,-0.1,-29.51,-7.54,72.22,478
14366,-0.85,-0.35,-0.12,-15.39,0.69,8.29,478
14386,-0.72,-0.46,-0.0,-22.06,10.42,-34.94,477
14406,-0.71,-0.49,0.16,-18.58,30.13,-54.59,475
14427,-1.79,-0.02,0.74,14.15,85.61,-5.95,476
14446,-1.23,0.23,0.19,-60.37,-37.58,-8.55,477
14467,-0.56,-0.32,-0.24,-110.87,-33.68,-48.16,476
14486,-0.72,-0.88,0.01,-91.99,2.37,-27.1,475
14507,-0.78,-0.95,0.09,11.33,42.74,-12.56,476
14526,-0.97,-0.18,0.25,34.81,33.7,-17.29,478
14546,-0.91,0.0,0.17,5.94,24.87,-14.18,478
14566,-1.06,-0.18,-0.14,-2.92,15.32,-14.68,477
14586,-0.93,-0.21,-0.31,4.81,19.44,-18.41,477
14606,-0.98,-0.11,-0.03,23.08,31.53,-24.65,477
14626,-1.04,0.1,0.14,11.28,21.3,-22.36,478
14646,-0.91,-0.18,0.09,-22.44,1.73,-19.23,477
14666,-0.84,-0.47,0.09,-18.96,5.04,-18.52,477
14686,-0.89,-0.41,0.05,0.53,10.4,-16.76,477
14706,-0.89,-0.29,0.05,4.4,11.15,-14.59,477
14726,-0.93,-0.3,0.1,1.39,9.76,-15.17,478
14746,-0.96,-0.24,0.02,3.17,8.43,-15.2,478
14767,-0.93,-0.25,-0.04,-5.88,6.08,-9.55,478
14786,-0.86,-0.4,0.05,-11.79,3.84,-7.58,477
14807,-0.9,-0.44,0.14,-2.15,7.13,-7.84,478
14826,-0.86,-0.39,0.08,13.72,8.65,-5.74,478
14846,-0.97,-0.25,-0.1,10.5,6.84,-2.04,478
14866,-0.97,-0.28,-0.1,1.52,2.02,-2.38,477
14886,-0.92,-0.23,0.02,5.52,2.65,-3.42,477
14906,-0.9,-0.08,0.07,9.14,4.13,-4.53,477
14926,-0.96,-0.03,0.06,6.4,2.84,-8.67,477
14946,-0.95,-0.2,0.03,4.24,1.39,-11.77,477
14966,-0.93,-0.25,0.05,1.6,-0.64,-8.9,477
14986,-0.91,-0.35,0.05,-0.19,-0.76,-6.81,477
15006,-0.89,-0.31,0.04,-0.34,0.08,-4.01,478
15026,-0.94,-0.24,0.05,-3.54,-1.75,-3.93,477
15046,-0.91,-0.24,0.03,-4.49,-2.65,-4.9,477
15067,-0.89,-0.28,0.04,-1.21,-0.93,-5.54,477
15086,-0.91,-0.28,0.04,-0.72,-0.01,-5.95,477
15107,-0.92,-0.27,0.05,-1.71,0.4,-6.29,477
15126,-0.92,-0.32,0.05,-3.02,-1.08,-4.85,477
15147,-0.9,-0.32,0.07,-4.77,-3.19,-2.16,477
15166,-0.88,-0.36,0.05,-3.71,-2.13,-1.63,477
15186,-0.89,-0.32,0.03,-2.72,-1.52,0.65,477
15206,-0.9,-0.32,0.05,-3.16,-1.81,1.03,477
15226,-0.89,-0.33,0.05,-0.78,-0.21,1.78,477
15246,-0.9,-0.3,0.06,2.47,1.2,1.79,477
15266,-0.93,-0.24,0.04,1.51,0.07,2.98,477
15286,-0.92,-0.19,0.02,-1.1,-1.16,2.07,477
15306,-0.94,-0.23,0.03,-2.11,-0.65,0.36,477
15326,-0.91,-0.28,0.05,1.86,0.43,-1.31,477
15346,-0.91,-0.26,0.05,3.27,1.64,-1.45,477
15366,-0.93,-0.25,0.05,0.26,0.32,-1.78,477
15386,-0.92,-0.25,0.06,-1.45,-0.32,-2.39,477
15407,-0.91,-0.29,0.04,-2.69,-0.8,-1.2,477
15426,-0.9,-0.31,0.03,-2.2,-0.99,-0.85,477
15447,-0.9,-0.31,0.04,-1.68,-0.24,-0.36,477
15466,-0.91,-0.31,0.06,0.72,0.43,-1.11,477
15486,-0.9,-0.32,0.07,2.78,0.32,-0.73,478
15506,-0.9,-0.3,0.03,4.18,1.26,-0.07,477
15526,-0.91,-0.28,0.04,2.3,1.23,1.64,477
15546,-0.92,-0.27,0.03,1.4,-3.49,2.75,477
15566,-0.93,-0.21,0.03,-2.6,-2.13,0.77,477
15586,-0.94,-0.23,0.03,-1.96,-1.22,-1.05,477
15606,-0.92,-0.24,0.03,-0.51,-0.04,-2.53,477
15626,-0.92,-0.25,0.04,-0.48,1.01,-3.35,477
15646,-0.92,-0.28,0.03,-3.39,0.0,-2.09,477
15666,-0.9,-0.3,0.04,-5.38,-0.1,-1.78,477
15686,-0.9,-0.33,0.06,-3.54,-0.59,-1.16,477
15707,-0.9,-0.31,0.05,-1.88,-0.8,-0.7,477
15726,-0.9,-0.31,0.04,-2.19,-0.84,-0.5,477
15747,-0.9,-0.33,0.04,-0.95,-0.24,0.19,477
15766,-0.91,-0.35,0.04,2.96,0.68,0.86,477
15787,-0.9,-0.29,0.05,5.05,1.3,0.55,477
15806,-0.91,-0.25,0.03,3.81,0.6,2.48,477
15826,-0.93,-0.24,0.02,1.62,0.16,1.13,477
15846,-0.92,-0.26,0.03,1.77,0.22,0.13,477
15866,-0.92,-0.27,0.03,2.91,0.57,-0.99,477
15886,-0.91,-0.29,0.04,5.1,1.87,-1.61,477
15906,-0.93,-0.26,0.05,5.07,1.56,-1.86,477
15926,-0.92,-0.25,0.04,1.77,-0.18,-0.88,477
15946,-0.91,-0.26,0.02,-2.25,-0.91,0.05,477
15966,-0.91,-0.3,0.04,-2.43,-0.85,-0.19,477
15986,-0.91,-0.3,0.04,-1.18,-1.05,-0.48,477
16006,-0.91,-0.28,0.03,-1.24,-1.23,-0.48,476
16026,-0.9,-0.3,0.04,-1.36,-1.19,-0.12,477
16047,-0.91,-0.32,0.06,-1.09,-0.97,0.32,477
16066,-0.9,-0.31,0.05,-2.64,-2.38,1.19,477
16087,-0.9,-0.31,0.03,-3.35,-2.18,2.51,477
16106,-0.91,-0.3,0.03,-1.76,-1.39,2.2,477
16126,-0.91,-0.28,0.03,0.06,-0.64,1.82,477
16146,-0.92,-0.25,0.03,0.96,-1.03,1.42,477
16166,-0.92,-0.25,0.05,0.67,-0.8,0.69,477
16186,-0.93,-0.28,0.05,0.99,-0.48,0.08,477
16206,-0.91,-0.28,0.05,1.11,-0.97,0.05,477
16226,-0.91,-0.26,0.03,0.52,-0.19,0.63,477
16246,-0.92,-0.26,0.04,-0.73,-0.53,0.16,477
16266,-0.91,-0.29,0.05,-0.41,-1.2,-0.07,477
16286,-0.91,-0.29,0.04,0.52,-0.59,0.17,477
16306,-0.91,-0.27,0.04,-0.28,-0.79,0.11,477
