Time,AccX,AccY,AccZ,GyroX,GyroY,GyroZ,Capacitance
7266,-0.91,-0.27,0.06,-2.52,0.1,-1.15,468
7286,-0.92,-0.25,0.08,-3.15,-0.19,-0.95,465
7306,-0.91,-0.28,0.09,-5.62,-1.39,-0.82,465
7326,-0.91,-0.31,0.08,-4.52,-0.61,-1.09,465
7346,-0.89,-0.3,0.06,-1.7,0.67,-0.7,465
7366,-0.92,-0.27,0.07,-0.67,0.53,-0.76,465
7387,-0.92,-0.27,0.07,-0.9,0.36,-1.08,465
7406,-0.9,-0.29,0.07,-0.28,0.68,-0.77,465
7427,-0.9,-0.29,0.06,-0.92,0.06,-0.45,465
7446,-0.91,-0.28,0.08,-1.85,-0.14,-0.77,465
7467,-0.91,-0.29,0.08,-1.51,-0.55,-0.71,465
7486,-0.91,-0.28,0.08,-1.73,-0.67,-0.71,465
7506,-0.91,-0.26,0.08,-3.61,-1.44,-0.66,465
7526,-0.93,-0.28,0.1,-4.25,-5.38,-0.5,465
7546,-0.9,-0.26,0.07,-4.06,-2.34,-0.19,465
7566,-0.92,-0.26,0.1,-6.77,-3.3,-0.68,465
7586,-0.92,-0.25,0.11,-10.29,-6.46,-1.43,465
7606,-0.9,-0.24,0.08,-12.31,-4.83,-1.64,465
7626,-0.9,-0.31,0.11,-10.95,-4.0,-2.27,465
7646,-0.91,-0.29,0.06,-11.65,-4.69,-1.89,465
7666,-0.92,-0.3,0.04,-16.93,-6.23,-1.09,465
7686,-0.88,-0.34,0.1,-13.87,-5.91,-0.12,465
7706,-0.92,-0.24,0.1,-18.05,-7.56,0.85,465
7727,-0.91,-0.24,0.06,-29.62,-12.92,1.11,465
7746,-0.93,-0.29,0.03,-27.01,-9.9,-1.09,465
7767,-0.9,-0.38,0.02,-11.22,-5.27,-2.85,465
7786,-0.89,-0.39,0.05,4.67,1.36,-4.47,465
7806,-0.92,-0.3,0.07,13.04,3.83,-5.67,466
7826,-0.93,-0.23,0.09,15.22,4.87,-5.98,466
7846,-0.96,-0.16,0.06,14.26,5.74,-8.62,466
7866,-0.96,-0.16,0.05,16.81,8.32,-11.43,466
7886,-0.97,-0.15,0.08,22.53,11.62,-15.93,466
7906,-0.98,-0.11,0.09,26.18,15.33,-20.15,466
7926,-1.08,-0.06,0.09,32.38,20.84,-25.28,468
7946,-1.1,0.05,0.23,54.88,29.77,-40.48,471
7966,-1.1,0.14,0.4,58.65,24.41,-58.83,475
7986,-0.74,-0.12,0.33,25.52,10.43,-44.28,476
8006,-0.86,-0.4,0.04,-22.54,6.94,-29.98,474
8027,-1.05,-0.48,0.23,-45.22,-14.49,-19.26,472
8046,-0.95,-0.38,0.29,-39.03,-25.45,7.0,473
8067,-0.94,-0.27,0.19,-36.75,-36.11,23.88,475
8086,-0.89,-0.35,0.18,-33.51,-38.96,40.76,475
8107,-0.82,-0.53,0.16,-10.09,-34.32,52.36,474
8126,-0.91,-0.44,0.23,25.43,-26.96,66.98,475
8146,-0.87,-0.13,0.2,38.99,-26.46,82.98,476
8166,-0.91,-0.05,0.14,31.57,-25.62,77.52,475
8186,-0.94,-0.19,0.14,29.07,-26.09,71.61,474
8206,-0.85,-0.29,0.15,39.51,-20.43,70.63,474
8226,-0.9,-0.2,0.15,50.3,-13.38,69.9,475
8246,-0.91,-0.14,0.13,49.48,-9.96,67.0,474
8266,-0.84,-0.09,0.13,43.19,-9.9,63.2,474
8286,-0.83,-0.11,0.12,32.26,-8.25,51.0,474
8306,-0.87,-0.2,0.14,21.77,-9.62,46.89,474
8326,-0.82,-0.17,0.12,15.23,-8.32,38.62,474
8346,-0.85,-0.2,0.13,11.58,-3.91,26.45,475
8367,-0.81,-0.16,0.1,7.16,-1.99,13.38,475
8386,-0.85,-0.19,0.1,0.01,3.97,-0.97,474
8407,-0.89,-0.19,0.13,-13.76,3.1,-11.21,475
8426,-0.82,-0.18,0.06,-29.7,4.73,-31.0,475
8446,-0.82,-0.18,0.08,-51.87,2.38,-42.12,474
8466,-0.75,-0.18,-0.01,-80.98,-0.29,-57.55,474
8486,-1.32,-0.44,0.53,-47.71,42.1,-21.92,475
8506,-1.39,-0.15,0.47,3.62,-17.41,20.77,476
8526,-0.87,0.11,0.16,-28.69,18.58,-51.28,475
8546,-1.07,0.01,0.05,-74.48,1.94,-18.12,474
8566,-0.82,-0.32,-0.14,-64.25,6.55,-25.4,473
8586,-0.86,-0.54,-0.01,-33.55,21.48,-27.72,473
8606,-0.94,-0.52,0.15,3.33,30.88,-31.23,473
8626,-0.9,-0.2,0.11,13.22,27.04,-20.71,473
8646,-0.87,-0.01,0.06,-16.0,22.79,-18.22,472
8667,-1.0,-0.24,0.06,-39.29,15.39,-22.48,471
8686,-0.91,-0.3,-0.01,-38.16,13.52,-18.91,471
8707,-0.89,-0.34,-0.02,-28.37,16.1,-18.3,472
8726,-0.94,-0.34,0.06,-17.68,19.11,-18.21,472
8747,-0.9,-0.21,0.08,-18.22,18.96,-15.52,471
8766,-0.92,-0.21,0.04,-21.65,20.12,-15.87,471
8786,-0.94,-0.26,0.06,-17.73,20.44,-18.12,471
8806,-0.93,-0.15,0.05,-14.02,21.33,-15.29,471
8826,-0.95,-0.13,0.01,-18.03,20.01,-18.89,471
8846,-0.94,-0.22,-0.01,-17.16,18.84,-23.44,470
8866,-0.9,-0.23,-0.01,-14.67,18.1,-24.73,470
8886,-0.88,-0.31,-0.04,-15.77,18.44,-27.49,470
8906,-0.91,-0.39,-0.07,-10.78,18.65,-28.13,470
8926,-0.89,-0.34,-0.05,0.55,20.53,-28.77,470
8946,-0.91,-0.24,0.12,13.04,24.27,-30.91,471
8966,-0.86,-0.19,0.14,3.68,23.6,-34.28,471
8986,-0.88,-0.32,-0.02,-1.62,25.84,-37.29,471
9007,-0.87,-0.37,-0.16,7.89,30.06,-37.6,470
9026,-0.89,-0.37,-0.04,20.7,31.48,-36.82,469
9047,-0.88,-0.29,0.1,19.75,31.14,-38.91,469
9066,-0.9,-0.22,-0.05,11.52,31.95,-43.17,470
9086,-0.9,-0.19,-0.1,14.94,37.3,-48.73,471
9106,-0.93,-0.2,0.1,29.49,41.2,-61.15,471
9126,-0.87,-0.22,0.18,45.45,40.24,-76.86,473
9146,-0.82,-0.28,0.11,48.82,50.62,-89.14,476
9166,-0.95,-0.42,-0.03,63.08,69.74,-109.93,477
9186,-1.31,-0.51,0.12,91.23,87.28,-119.98,480
9206,-1.62,-0.51,0.15,122.36,102.79,-131.57,484
9226,-1.8,-0.32,0.33,141.62,93.43,-131.76,486
9246,-1.46,-0.12,0.42,108.26,58.96,-145.7,486
9266,-1.27,-0.23,0.17,64.52,51.02,-138.24,488
9286,-1.0,-0.24,-0.05,-13.67,15.43,-96.48,486
9307,-0.45,-0.37,-0.29,-106.51,-19.83,-75.14,485
9326,-0.23,-0.95,-0.48,-131.16,2.09,-79.49,485
9347,-0.35,-1.34,-0.31,-55.91,3.3,-54.12,485
9366,-0.35,-1.12,-0.19,26.67,-22.6,33.37,486
9387,-0.14,-0.62,-0.13,60.0,-29.87,82.36,487
9406,-0.15,-0.65,-0.24,50.47,-45.19,123.98,486
9426,-0.29,-0.73,-0.17,47.65,-49.76,161.76,485
9446,-0.42,-0.8,-0.12,49.77,-75.77,191.95,484
9466,-0.43,-0.75,-0.08,39.36,-91.93,213.64,483
9486,-0.59,-0.6,0.09,24.0,-108.35,230.97,481
9506,-0.68,-0.63,0.1,-8.55,-119.27,240.77,479
9526,-0.67,-0.6,0.16,-42.13,-122.05,245.67,476
9546,-0.71,-0.59,0.11,-56.06,-117.01,237.47,474
9566,-0.98,-0.57,0.23,-37.21,-112.0,228.53,471
9586,-0.94,-0.4,-0.03,-13.16,-103.8,205.2,471
9606,-1.13,-0.26,0.09,26.99,-57.77,137.52,469
9626,-0.73,-0.04,0.11,49.94,-34.29,115.53,469
9647,-0.71,-0.05,-0.06,87.54,18.65,35.17,470
9666,-0.95,0.11,0.11,89.6,26.87,5.15,470
9687,-0.82,0.18,0.11,52.96,26.82,-31.92,470
9706,-0.81,0.09,-0.02,-4.32,23.26,-78.51,471
9726,-0.94,-0.09,-0.04,-75.85,16.82,-88.8,470
9746,-1.48,-0.41,0.5,-57.33,42.88,-35.11,469
9766,-1.13,-0.46,0.22,-31.93,2.56,-39.6,474
9786,-0.9,-0.46,0.11,-31.12,33.83,-86.59,475
9806,-0.71,-0.4,-0.02,-53.3,15.49,-44.04,472
9826,-0.6,-0.37,-0.01,-24.61,30.78,-32.88,471
9846,-0.93,-0.38,0.18,-18.46,30.67,-42.19,473
9866,-0.96,-0.32,0.1,-18.52,28.93,-36.25,475
9886,-0.85,-0.49,-0.1,-7.07,36.5,-42.12,475
9906,-0.9,-0.47,-0.17,20.64,42.75,-38.25,473
9926,-0.93,-0.23,-0.13,33.02,46.67,-29.72,472
9947,-1.04,-0.12,0.03,13.6,27.2,-26.15,472
9966,-0.95,-0.05,0.04,-26.95,16.04,-29.92,472
9987,-0.88,-0.26,-0.03,-45.29,13.3,-32.91,472
10006,-0.89,-0.38,0.03,-31.45,16.47,-31.53,472
10027,-0.92,-0.28,0.01,-13.85,24.24,-33.26,472
10046,-0.94,-0.12,0.0,-14.11,20.9,-30.34,472
10066,-0.92,-0.19,0.02,-28.38,15.86,-36.57,472
10086,-0.86,-0.33,-0.03,-28.23,16.43,-40.04,472
10106,-0.87,-0.34,-0.04,-16.52,21.65,-40.62,472
10126,-0.88,-0.35,0.06,-8.16,21.89,-42.41,472
10146,-0.83,-0.29,0.08,-5.1,25.68,-43.11,473
10166,-0.86,-0.29,0.04,-2.31,28.35,-46.45,473
10186,-0.87,-0.3,0.01,-2.14,28.0,-48.42,473
10206,-0.88,-0.37,-0.05,-1.16,28.87,-54.79,472
10226,-0.88,-0.41,-0.1,3.89,33.13,-57.15,472
10246,-0.89,-0.35,-0.08,7.31,33.86,-58.6,473
10266,-0.87,-0.35,-0.02,11.95,42.47,-66.39,474
10287,-1.0,-0.34,0.04,23.14,52.27,-73.57,476
10306,-1.13,-0.25,0.19,40.99,58.73,-81.05,480
10327,-1.28,-0.31,0.45,70.23,69.86,-115.35,484
10346,-1.64,-0.69,0.69,119.62,95.17,-169.75,489
10366,-1.95,-0.52,0.47,173.89,101.83,-181.08,494
10386,-1.43,-0.06,-0.04,126.87,59.92,-148.85,493
10406,-0.86,-0.3,-0.46,22.21,26.26,-119.44,489
10426,-0.55,-0.49,-0.49,-78.78,-25.96,-93.29,485
10446,-0.3,-0.75,-0.47,-105.67,-17.39,-75.35,485
10466,-0.27,-1.04,-0.29,-73.55,-25.41,-39.86,485
10486,-0.23,-1.15,-0.26,-4.6,-28.52,7.78,486
10506,-0.21,-0.78,0.0,44.79,-35.16,59.08,486
10526,-0.23,-0.66,-0.13,48.07,-62.02,111.23,486
10546,-0.31,-0.52,-0.09,32.94,-65.44,153.14,485
10566,-0.53,-0.61,-0.06,11.78,-85.85,181.05,485
10587,-0.49,-0.71,-0.06,-3.87,-98.26,203.52,484
10606,-0.55,-0.77,0.02,-10.34,-103.8,215.44,484
10627,-0.63,-0.73,0.06,-7.7,-106.19,229.92,483
10646,-0.64,-0.63,0.06,-17.68,-103.83,238.89,480
10667,-0.63,-0.66,0.04,-18.87,-95.51,221.03,477
10686,-0.72,-0.7,0.0,10.49,-78.95,209.69,474
10706,-0.83,-0.66,-0.15,65.52,-59.5,202.48,472
10726,-1.21,-0.24,0.09,95.92,-31.09,184.74,470
10746,-1.02,0.14,0.1,59.65,-39.76,163.9,469
10766,-0.82,0.22,0.06,39.98,-9.16,98.39,469
10786,-0.9,0.02,0.23,33.62,4.47,51.82,468
10806,-0.85,0.02,0.14,30.96,20.99,8.36,469
10826,-1.01,0.16,0.12,-4.2,19.52,-28.25,469
10846,-0.91,0.1,0.04,-66.55,1.62,-55.29,470
10866,-0.66,-0.29,-0.08,-119.1,-4.63,-87.89,470
10886,-0.66,-0.62,0.06,-115.58,10.33,-91.02,470
10906,-1.43,-0.61,0.71,-63.15,24.64,-6.1,469
10927,-1.09,-0.43,0.58,-17.29,-3.41,-13.23,476
10946,-0.7,-0.49,0.02,-2.05,48.39,-76.65,475
10967,-0.86,-0.3,-0.06,-0.84,35.59,-33.43,472
10986,-0.77,-0.26,-0.1,25.23,42.41,-20.01,471
11006,-1.08,-0.29,-0.01,20.23,45.34,-33.73,473
11026,-1.12,-0.3,-0.05,-3.29,31.36,-38.02,473
11046,-0.82,-0.37,-0.08,-11.87,23.31,-33.21,472
11066,-0.83,-0.46,-0.13,-6.87,26.17,-32.19,471
11086,-0.96,-0.43,-0.05,10.78,27.75,-30.95,471
11106,-0.95,-0.21,-0.05,19.74,24.32,-27.53,473
11126,-0.92,-0.16,-0.02,14.59,22.58,-32.88,473
11146,-0.91,-0.19,0.04,17.6,28.43,-36.62,473
11166,-0.95,-0.1,0.01,20.56,27.97,-31.23,473
11186,-0.99,-0.03,-0.03,1.43,21.1,-28.97,473
11206,-0.91,-0.19,-0.05,-16.86,10.24,-33.0,472
11227,-0.86,-0.29,-0.02,-23.39,9.74,-31.79,471
11246,-0.9,-0.27,0.04,-22.17,11.1,-30.62,471
11267,-0.94,-0.12,-0.07,-34.72,6.61,-29.12,472
11286,-0.95,-0.13,-0.04,-58.54,-2.35,-30.92,472
11307,-0.79,-0.51,0.01,-53.67,0.23,-40.97,471
11326,-0.85,-0.56,0.07,-28.26,9.07,-35.32,471
11346,-0.86,-0.36,0.03,-10.37,14.58,-34.88,472
11366,-0.95,-0.25,-0.03,-5.71,21.49,-38.88,472
11386,-0.89,-0.11,-0.03,2.0,22.24,-43.03,471
11406,-0.94,-0.0,0.03,11.92,32.58,-49.43,470
11426,-1.01,0.03,0.03,11.66,33.01,-63.35,471
11446,-0.94,-0.03,0.04,2.93,32.49,-78.41,472
11466,-0.93,-0.15,-0.06,4.88,41.48,-91.93,473
11486,-1.11,-0.3,0.02,16.2,49.74,-106.02,475
11506,-1.26,-0.63,0.31,50.85,63.05,-143.11,480
11526,-1.66,-0.73,0.48,118.24,96.26,-173.34,486
11546,-1.9,-0.2,0.69,170.97,86.23,-150.97,488
11567,-1.38,0.17,0.18,95.23,51.01,-137.21,489
11586,-0.96,-0.11,-0.06,-38.4,2.15,-120.13,488
11607,-0.37,-0.61,-0.45,-141.79,-36.11,-104.66,485
11626,-0.13,-1.13,-0.44,-133.64,-0.48,-91.02,484
11646,-0.36,-1.43,-0.21,-48.89,6.96,-56.79,484
11666,-0.35,-1.13,-0.09,40.32,-23.54,19.85,485
11686,-0.2,-0.67,-0.07,76.06,-27.06,77.64,485
11706,-0.26,-0.58,-0.2,65.81,-44.02,120.66,484
11726,-0.33,-0.6,-0.17,48.55,-60.57,162.66,483
11746,-0.44,-0.64,-0.18,30.52,-79.36,196.28,483
11766,-0.48,-0.67,-0.14,8.81,-99.41,216.69,481
11786,-0.61,-0.72,-0.08,-0.64,-109.12,229.81,481
11806,-0.77,-0.64,0.07,-12.92,-118.89,240.16,479
11826,-0.68,-0.54,0.13,-42.49,-121.07,242.91,476
11846,-0.71,-0.51,0.02,-53.03,-113.9,237.59,473
11867,-0.99,-0.64,0.16,-12.19,-99.77,217.52,471
11886,-0.86,-0.56,0.19,35.48,-69.1,188.54,469
11907,-0.84,-0.07,0.04,50.52,-38.11,154.19,468
11926,-1.06,0.22,0.18,22.61,-29.45,120.16,467
11947,-0.82,0.33,0.16,6.58,-8.12,49.17,468
11966,-0.98,0.24,0.07,-8.84,-2.37,-15.43,468
11986,-0.85,0.14,0.07,-48.63,-1.79,-57.47,469
12006,-0.64,-0.29,-0.14,-75.64,17.74,-108.37,469
12026,-0.82,-0.92,0.16,-40.17,42.41,-123.75,469
12046,-1.65,-0.65,0.55,24.64,39.72,13.75,470
12066,-0.96,-0.1,0.03,7.43,21.39,-55.58,475
12086,-0.81,-0.51,0.0,-52.2,33.08,-87.46,471
12106,-0.67,-0.75,-0.04,-43.84,25.22,-40.6,470
12126,-0.74,-0.44,-0.03,16.16,44.65,-29.21,470
12146,-1.03,-0.16,0.06,3.54,33.72,-30.5,475
12166,-1.04,-0.21,-0.07,-19.33,26.84,-32.21,472
12186,-0.87,-0.41,-0.12,-19.06,25.23,-31.06,471
12207,-0.82,-0.43,-0.01,-7.84,28.68,-30.88,471
12226,-0.98,-0.3,0.03,-3.07,35.8,-25.76,473
12247,-0.92,-0.13,-0.01,-18.16,22.35,-23.83,473
12266,-0.91,-0.26,0.01,-30.6,19.39,-28.74,472
12286,-0.88,-0.33,0.07,-23.21,21.74,-29.08,471
12306,-0.91,-0.26,0.0,-11.87,27.89,-28.62,472
12326,-0.94,-0.21,-0.02,-8.4,26.2,-28.18,472
12346,-0.89,-0.22,0.02,-15.27,21.17,-31.17,471
12366,-0.88,-0.25,0.0,-17.1,24.17,-33.98,470
12386,-0.9,-0.26,-0.02,-15.97,24.43,-35.84,471
12406,-0.91,-0.24,-0.01,-17.91,21.74,-38.82,471
12426,-0.87,-0.26,-0.03,-22.29,20.7,-40.45,471
12446,-0.89,-0.34,-0.01,-21.64,19.89,-44.16,471
12466,-0.84,-0.39,-0.0,-13.84,22.36,-45.21,471
12486,-0.89,-0.35,-0.05,-4.06,29.25,-46.54,471
12507,-0.85,-0.29,-0.05,2.47,30.15,-48.12,471
12526,-0.84,-0.27,0.02,6.62,35.95,-54.94,472
12547,-0.89,-0.25,0.06,16.04,46.3,-62.88,473
12566,-0.89,-0.27,0.06,29.75,54.06,-74.18,476
12587,-1.02,-0.34,0.07,55.42,71.39,-95.32,478
12606,-1.58,-0.47,0.53,93.77,90.09,-119.28,483
12626,-1.93,-0.77,0.58,145.58,102.76,-156.7,489
12646,-1.82,-0.31,0.54,188.07,110.99,-170.59,490
12666,-1.42,0.0,0.08,118.29,76.36,-146.65,490
12686,-0.94,-0.18,-0.29,4.07,17.14,-109.75,487
12706,-0.42,-0.5,-0.58,-94.64,-28.19,-89.21,484
12726,-0.16,-0.86,-0.58,-98.11,-1.32,-75.7,482
12746,-0.49,-1.07,-0.19,-52.29,-9.03,-32.99,484
12766,-0.3,-1.04,-0.16,7.37,-39.42,19.9,485
12786,-0.06,-0.7,-0.08,43.16,-46.06,74.5,485
12806,-0.13,-0.62,-0.21,48.7,-67.3,128.89,484
12826,-0.25,-0.5,-0.2,36.81,-79.1,173.73,483
12847,-0.47,-0.65,-0.14,13.98,-105.27,199.63,483
12866,-0.51,-0.72,-0.1,-2.19,-123.82,222.8,482
12887,-0.61,-0.7,-0.02,-20.87,-132.51,242.25,481
12906,-0.78,-0.7,0.14,-41.38,-140.31,248.71,479
12926,-0.79,-0.64,0.24,-58.77,-132.14,246.88,476
12946,-0.79,-0.55,0.16,-50.58,-124.11,241.0,473
12966,-0.87,-0.53,0.1,-11.06,-100.2,212.48,470
12986,-0.97,-0.38,-0.02,29.89,-71.82,177.9,468
13006,-0.95,-0.09,0.14,52.62,-38.32,131.61,467
13026,-0.81,0.03,0.08,56.42,-4.99,81.52,468
13046,-0.83,0.28,0.04,67.75,21.51,25.99,468
13066,-0.88,0.3,0.0,33.2,23.4,-30.65,468
13086,-0.9,0.26,-0.01,-36.19,20.53,-68.47,468
13106,-0.82,-0.05,-0.02,-91.35,17.63,-102.42,468
13126,-1.25,-0.53,0.71,-79.65,38.52,-58.08,468
13147,-1.57,-0.19,0.54,-78.57,-25.56,3.59,472
13166,-0.73,-0.35,-0.17,-91.71,6.67,-96.07,473
13187,-0.66,-0.81,-0.07,-82.4,27.78,-77.14,471
13206,-0.58,-0.88,-0.22,2.93,43.54,-21.41,469
13227,-0.95,-0.43,0.04,43.98,50.73,-27.84,470
13246,-1.0,-0.1,0.18,8.53,44.73,-24.95,474
13266,-0.96,-0.12,0.03,-27.22,28.96,-30.88,472
13286,-0.9,-0.33,-0.23,-33.55,29.05,-32.85,471
13306,-0.88,-0.46,-0.06,-10.14,36.97,-33.6,470
13326,-1.0,-0.18,0.05,-3.26,32.67,-29.09,470
13346,-0.9,-0.12,0.04,-29.73,23.13,-34.21,472
13366,-0.82,-0.36,0.07,-30.38,27.88,-39.05,471
13386,-0.91,-0.35,0.02,-7.96,35.52,-36.53,471
13406,-0.89,-0.16,-0.03,0.85,35.92,-35.29,471
13426,-0.92,-0.18,0.0,-11.13,32.26,-39.63,471
13446,-0.88,-0.34,-0.03,-15.45,28.56,-44.04,471
13466,-0.86,-0.36,-0.07,-11.85,27.75,-41.03,471
13487,-0.87,-0.34,0.0,-7.85,26.84,-42.88,471
13506,-0.89,-0.33,0.03,-6.81,25.04,-46.57,471
13527,-0.89,-0.29,0.0,-8.87,23.1,-46.6,472
13546,-0.86,-0.4,-0.04,-7.7,28.97,-51.5,471
13566,-0.82,-0.57,0.01,9.02,34.26,-59.53,472
13586,-0.82,-0.58,0.09,32.9,37.08,-61.83,473
13606,-0.8,-0.35,-0.07,48.04,52.56,-56.68,474
13626,-1.02,-0.22,-0.09,35.6,52.64,-57.98,474
13646,-1.01,-0.35,0.16,47.1,60.46,-79.75,476
13666,-1.2,-0.37,0.26,94.12,90.55,-104.73,481
13686,-2.0,-0.28,0.67,150.16,107.68,-112.86,486
13706,-2.0,-0.01,0.65,159.19,85.48,-137.46,490
13726,-1.19,0.14,0.17,92.79,83.48,-168.68,490
13746,-0.87,-0.34,-0.3,-1.99,32.87,-127.02,488
13766,-0.43,-0.48,-0.76,-106.98,-28.72,-93.9,484
13787,-0.37,-0.85,-0.4,-109.04,3.13,-80.19,483
13806,-0.47,-1.32,-0.24,-42.45,-2.16,-61.18,484
13827,-0.21,-1.18,-0.19,42.85,-26.23,23.53,485
13846,-0.05,-0.68,-0.08,85.98,-24.46,70.6,485
13867,-0.18,-0.5,-0.19,71.74,-57.5,128.86,484
13886,-0.25,-0.43,-0.17,42.78,-68.9,169.37,483
13906,-0.49,-0.63,-0.13,14.0,-99.8,198.14,482
13926,-0.52,-0.7,-0.07,-11.84,-121.94,219.96,481
13946,-0.63,-0.74,0.02,-37.3,-141.24,233.4,480
13966,-0.75,-0.7,0.14,-51.53,-144.48,244.19,479
13986,-0.72,-0.72,0.15,-64.25,-136.48,236.66,475
14006,-0.84,-0.67,0.18,-45.87,-124.63,230.17,472
14026,-0.9,-0.49,0.15,0.07,-94.8,224.95,470
14046,-0.99,-0.4,-0.23,34.15,-73.93,174.71,468
14066,-1.05,-0.06,0.29,59.69,-35.8,136.01,467
14086,-0.78,0.06,0.14,58.16,-8.75,86.04,467
14106,-0.9,0.22,0.02,67.25,15.92,23.99,468
14127,-0.87,0.26,0.13,34.97,14.1,-18.56,468
14146,-0.73,0.1,-0.02,-13.22,18.12,-68.5,467
14167,-0.75,-0.18,-0.11,-70.58,16.7,-106.71,467
14186,-0.87,-0.48,0.16,-87.58,8.44,-89.37,466
14206,-1.51,-0.35,0.61,-40.98,30.72,16.19,466
14226,-1.3,-0.09,0.29,-35.99,4.97,-33.31,472
14246,-0.87,-0.27,0.09,-85.12,9.88,-70.56,471
14266,-0.58,-0.58,0.0,-65.62,24.0,-41.05,470
14286,-0.68,-0.78,-0.02,12.36,44.33,-27.32,470
14306,-1.01,-0.38,0.04,30.07,47.48,-30.08,472
14326,-0.96,-0.13,0.02,-1.18,39.75,-26.45,472
14346,-0.9,-0.34,-0.08,-21.76,32.72,-25.83,471
14366,-0.84,-0.55,-0.05,-13.38,28.78,-29.31,470
14386,-0.91,-0.5,-0.03,6.81,35.11,-22.18,470
14406,-0.99,-0.15,-0.05,2.68,26.67,-15.96,471
14427,-0.96,-0.09,0.03,-21.44,16.94,-22.28,471
14446,-0.94,-0.21,0.04,-24.54,17.14,-26.31,470
14467,-0.9,-0.26,0.07,-14.46,18.17,-24.77,471
14486,-0.89,-0.18,0.06,-13.56,21.08,-26.45,471
14507,-0.93,-0.18,0.01,-14.84,20.91,-28.86,471
14526,-0.9,-0.24,0.02,-10.89,22.03,-31.2,470
14546,-0.9,-0.24,0.03,-5.51,25.46,-34.7,470
14566,-0.92,-0.18,-0.02,-1.21,30.97,-37.98,470
14586,-0.94,-0.13,-0.06,5.39,33.68,-42.15,470
14606,-0.99,-0.11,0.05,8.24,33.59,-48.42,471
14626,-0.93,-0.11,0.14,10.64,33.8,-56.33,471
14646,-0.84,-0.16,0.18,17.78,36.47,-72.21,472
14666,-0.87,-0.27,0.25,30.33,41.71,-94.33,474
14686,-0.87,-0.32,0.16,52.09,57.54,-107.24,477
14706,-0.98,-0.3,-0.03,84.55,83.01,-119.2,479
14726,-1.61,-0.26,0.25,117.55,102.76,-122.79,483
14746,-2.0,-0.18,0.46,140.73,97.77,-122.92,489
14767,-1.56,0.01,0.39,100.16,84.91,-152.04,489
14786,-1.15,-0.33,-0.01,20.13,44.76,-131.95,488
14807,-0.69,-0.62,-0.37,-69.48,-20.29,-117.08,485
14826,-0.17,-0.79,-0.46,-90.52,-10.23,-82.05,483
14846,-0.39,-1.13,-0.17,-53.39,9.34,-56.6,484
14866,-0.49,-1.06,-0.08,2.21,-33.99,2.91,484
14886,-0.17,-0.6,-0.08,27.68,-50.83,60.54,485
14906,-0.21,-0.51,-0.17,18.38,-68.57,109.7,484
14926,-0.38,-0.64,-0.19,11.54,-78.26,148.72,484
14946,-0.56,-0.64,-0.11,11.23,-105.28,180.01,482
14966,-0.59,-0.65,-0.12,4.62,-127.9,201.43,481
14986,-0.73,-0.61,0.03,5.26,-124.08,214.92,480
15006,-0.85,-0.49,0.09,-23.06,-124.55,218.34,479
15026,-0.76,-0.55,0.2,-46.67,-124.2,207.59,477
15046,-0.69,-0.65,0.18,-39.42,-99.47,205.27,474
15067,-0.68,-0.4,0.04,-30.86,-94.28,222.27,471
15086,-0.86,-0.45,-0.16,-8.35,-64.77,184.16,469
15107,-1.02,-0.25,0.13,21.36,-56.55,152.22,467
15126,-0.66,0.22,0.04,9.37,-23.88,121.75,467
15147,-0.86,0.19,0.02,-3.01,3.63,36.76,467
15166,-0.73,0.12,-0.02,-10.86,12.97,-8.77,467
15186,-0.89,0.05,-0.03,-46.9,21.68,-64.3,467
15206,-1.3,-0.63,0.56,-63.61,38.73,-78.21,467
15226,-1.71,-0.31,0.66,-43.48,-23.67,49.35,467
15246,-0.94,-0.18,0.15,-35.32,20.75,-77.64,470
15266,-1.07,-0.45,-0.19,-79.99,4.47,-41.37,469
15286,-0.52,-0.62,-0.21,-24.81,25.23,-4.8,468
15306,-0.87,-0.43,-0.07,6.38,35.02,-11.29,468
15326,-1.26,-0.52,-0.05,-2.78,25.81,-27.41,470
15346,-0.81,-0.45,-0.12,-2.16,15.98,-11.99,472
15366,-0.81,-0.41,-0.05,15.07,22.79,-6.04,471
15386,-1.04,-0.11,0.15,15.08,20.17,-8.01,471
15407,-0.88,-0.01,0.22,4.29,17.13,-9.26,471
15426,-0.95,-0.03,0.18,-2.06,18.94,-10.18,472
15447,-0.92,-0.18,0.11,-4.86,14.87,-9.58,473
15466,-0.91,-0.3,0.01,-0.35,17.43,-10.18,472
15486,-0.94,-0.31,0.05,5.14,14.97,-8.42,471
15506,-0.88,-0.29,0.1,9.25,12.96,-7.26,471
15526,-0.95,-0.17,0.08,5.72,10.47,-3.44,472
15546,-0.94,-0.19,0.1,0.64,7.08,-5.58,471
15566,-0.9,-0.22,0.12,5.42,10.39,-6.22,471
15586,-0.88,-0.29,0.1,8.16,9.34,-4.16,471
15606,-0.94,-0.26,-0.06,5.28,7.66,-1.89,470
15626,-1.08,-0.13,-0.15,4.65,3.86,1.32,469
15646,-1.05,-0.06,-0.06,4.13,-5.87,-0.51,469
15666,-0.9,-0.1,0.04,-0.86,-9.39,-2.92,469
15686,-0.87,-0.3,0.05,-2.77,-4.19,-1.12,469
15707,-0.87,-0.29,0.14,3.33,-5.99,1.81,469
15726,-0.9,-0.12,0.21,6.79,-3.48,2.56,469
15747,-0.98,0.02,0.21,-2.32,-8.14,5.56,468
15766,-0.96,-0.07,0.15,-7.22,-13.3,0.83,468
15787,-0.95,-0.06,0.16,-1.45,-7.06,-2.18,468
15806,-0.96,-0.05,0.2,5.19,-0.74,-4.01,468
15826,-0.99,-0.01,0.14,-2.54,-0.98,-2.99,468
15846,-0.94,-0.12,0.1,-15.04,-3.83,-3.21,468
15866,-0.86,-0.41,0.1,-9.16,-1.22,-4.3,467
15886,-0.87,-0.34,0.08,8.68,5.08,-3.96,467
15906,-0.95,-0.13,0.08,12.47,6.15,-2.48,467
15926,-0.93,-0.1,0.12,6.81,3.17,-1.78,467
15946,-0.93,-0.18,0.15,2.62,2.1,-2.08,467
15966,-0.98,-0.15,0.15,1.13,0.1,-2.39,467
15986,-0.94,-0.08,0.1,-1.96,-0.83,-2.42,467
16006,-0.93,-0.15,0.11,-3.39,0.65,-3.41,467
16026,-0.95,-0.19,0.14,-0.54,1.34,-3.67,467
16047,-0.93,-0.19,0.11,0.12,1.63,-3.2,467
16066,-0.91,-0.2,0.11,-1.22,-0.95,-1.26,467
16087,-0.93,-0.22,0.1,-1.32,0.24,-2.13,466
16106,-0.9,-0.22,0.11,1.52,-0.19,-1.76,466
16126,-0.91,-0.21,0.1,5.97,3.77,-2.27,466
16146,-0.98,-0.16,0.09,5.26,2.65,-0.97,466
16166,-0.92,-0.1,0.1,2.03,1.74,-0.95,466
16186,-0.93,-0.19,0.11,1.95,2.76,-2.15,466
16206,-0.96,-0.19,0.09,1.34,2.0,-2.16,466
16226,-0.92,-0.2,0.1,1.19,0.7,-0.95,466
16246,-0.92,-0.23,0.1,3.71,1.08,-1.15,466
16266,-0.94,-0.18,0.11,4.64,0.88,-0.79,466
16286,-0.94,-0.13,0.12,2.36,0.58,0.02,466
16306,-0.93,-0.19,0.11,0.64,-0.52,-0.76,466
