Time,AccX,AccY,AccZ,GyroX,GyroY,GyroZ,Capacitance
7269,-0.91,-0.25,0.06,-7.62,-0.19,-1.78,467
7289,-0.94,-0.21,0.06,-10.52,-0.63,-2.53,465
7309,-0.92,-0.25,0.08,-12.2,-1.93,-3.33,465
7329,-0.91,-0.28,0.06,-10.29,-1.36,-3.92,465
7349,-0.9,-0.3,0.05,-5.88,1.63,-3.63,465
7369,-0.91,-0.27,0.07,-0.99,2.09,-3.1,465
7389,-0.92,-0.2,0.09,-0.88,1.94,-3.08,465
7409,-0.95,-0.21,0.1,-6.24,-1.01,-3.84,465
7430,-0.91,-0.24,0.07,-11.66,-1.62,-4.15,465
7450,-0.9,-0.29,0.04,-11.36,-1.47,-4.27,465
7471,-0.91,-0.31,0.04,-9.3,-0.46,-4.55,465
7490,-0.91,-0.33,0.05,-5.1,0.55,-3.97,465
7511,-0.9,-0.28,0.06,-1.16,0.15,-3.05,466
7530,-0.92,-0.24,0.08,-1.69,1.13,-3.07,466
7550,-0.94,-0.21,0.07,-4.49,0.12,-3.3,466
7570,-0.92,-0.28,0.08,-6.06,-1.07,-4.33,466
7590,-0.9,-0.31,0.07,-2.82,1.05,-4.41,465
7610,-0.91,-0.28,0.05,-4.04,-0.29,-4.12,466
7630,-0.92,-0.27,0.05,-4.81,-1.29,-4.81,466
7650,-0.9,-0.29,0.07,-2.75,-1.67,-4.91,466
7670,-0.9,-0.32,0.06,-0.44,-0.81,-4.84,466
7690,-0.91,-0.31,0.05,-0.15,-0.98,-5.08,466
7710,-0.89,-0.29,0.03,1.91,-0.13,-4.1,466
7730,-0.93,-0.25,0.05,4.75,1.04,-4.17,466
7750,-0.93,-0.21,0.09,4.92,0.82,-5.71,466
7771,-0.93,-0.22,0.09,6.54,2.96,-8.76,466
7790,-0.95,-0.22,0.09,8.6,4.38,-11.39,466
7811,-0.95,-0.18,0.09,8.58,5.13,-13.37,467
7830,-0.96,-0.15,0.06,8.34,6.9,-16.81,467
7851,-0.96,-0.17,0.06,15.47,10.88,-22.96,467
7870,-0.96,-0.32,0.1,28.35,18.38,-31.77,468
7890,-0.96,-0.28,0.09,44.35,23.48,-35.11,468
7910,-1.02,-0.15,0.19,57.7,27.34,-40.93,470
7930,-1.0,0.0,0.21,57.9,28.39,-41.25,471
7950,-1.0,0.17,0.21,24.67,23.1,-39.42,474
7970,-0.92,-0.1,0.19,-14.96,9.72,-44.41,475
7990,-0.91,-0.4,0.17,-31.72,0.38,-42.27,476
8010,-0.81,-0.6,0.04,-32.41,1.14,-38.07,476
8030,-0.9,-0.58,0.1,-19.86,-9.12,-19.8,476
8050,-0.97,-0.21,0.16,-24.21,-33.13,14.93,476
8070,-1.02,-0.11,0.12,-43.1,-44.51,33.8,476
8090,-0.97,-0.29,0.15,-41.16,-51.82,46.9,477
8111,-0.91,-0.45,0.19,-8.4,-40.64,56.89,478
8130,-0.92,-0.38,0.13,23.01,-32.46,70.45,478
8151,-0.97,-0.11,0.13,21.62,-38.87,89.53,477
8170,-0.87,-0.07,0.13,1.56,-45.29,86.12,476
8190,-0.91,-0.29,0.13,-3.27,-39.84,78.9,476
8210,-0.84,-0.38,0.15,9.53,-38.31,80.2,476
8230,-0.8,-0.34,0.11,26.4,-26.19,79.91,476
8250,-0.87,-0.2,0.09,31.97,-21.09,78.2,475
8270,-0.8,-0.17,0.1,28.43,-19.71,66.31,475
8290,-0.81,-0.31,0.1,33.22,-9.73,50.67,475
8310,-0.88,-0.31,0.12,41.79,-1.96,46.67,476
8330,-0.83,-0.21,0.12,42.54,3.05,38.45,476
8350,-0.82,-0.16,0.13,38.35,7.65,26.11,475
8370,-0.89,-0.02,0.09,25.1,7.74,13.51,475
8390,-0.91,-0.04,0.14,3.1,4.73,-0.73,475
8411,-0.85,-0.14,0.13,-11.45,5.65,-13.63,475
8430,-0.89,-0.06,0.08,-20.9,9.51,-26.68,476
8451,-0.91,-0.05,0.07,-43.16,2.62,-33.78,475
8470,-0.88,-0.19,0.13,-57.8,12.27,-42.12,475
8491,-1.29,-0.2,0.6,-48.3,18.94,-21.84,476
8510,-1.32,-0.04,0.55,-60.29,-15.79,-10.2,477
8530,-0.79,-0.14,0.08,-66.98,-0.35,-46.58,476
8550,-0.9,-0.41,-0.09,-56.79,13.48,-53.98,475
8570,-0.82,-0.5,-0.22,-17.2,23.16,-30.23,474
8590,-0.73,-0.45,0.04,26.73,46.01,-32.03,474
8610,-1.04,-0.23,0.33,17.53,36.71,-26.1,475
8630,-0.97,0.06,0.21,-24.52,17.65,-21.45,475
8650,-0.78,-0.24,0.01,-44.4,23.52,-29.59,473
8670,-0.99,-0.45,-0.09,-22.33,30.97,-26.81,472
8690,-0.96,-0.26,-0.02,-10.04,25.34,-23.84,472
8710,-0.94,-0.18,0.01,-15.88,25.36,-26.36,473
8730,-0.93,-0.23,0.01,-23.81,21.42,-29.78,473
8751,-0.89,-0.31,-0.02,-18.43,22.39,-29.31,473
8770,-0.94,-0.24,-0.03,-15.91,22.06,-29.07,472
8791,-0.92,-0.2,-0.04,-16.93,20.73,-29.91,472
8810,-0.9,-0.27,0.01,-17.19,19.97,-31.63,473
8830,-0.88,-0.28,0.02,-15.48,21.2,-30.62,473
8850,-0.89,-0.27,0.03,-15.25,21.19,-31.14,473
8870,-0.91,-0.24,0.0,-14.07,20.96,-33.2,473
8890,-0.89,-0.26,-0.05,-14.4,20.27,-37.05,473
8910,-0.86,-0.35,-0.04,-8.21,21.77,-37.62,474
8930,-0.85,-0.32,0.02,-1.33,25.81,-36.0,474
8950,-0.88,-0.3,0.02,-4.33,25.28,-37.72,475
8970,-0.83,-0.36,-0.07,-5.4,25.65,-42.36,475
8990,-0.93,-0.37,-0.04,-3.68,24.16,-42.64,474
9010,-0.85,-0.39,-0.07,-1.91,22.96,-45.75,474
9030,-0.8,-0.52,-0.12,2.75,26.23,-47.36,475
9051,-0.85,-0.54,-0.06,9.02,28.06,-45.71,475
9070,-0.83,-0.49,0.01,14.11,26.41,-45.98,475
9091,-0.79,-0.42,0.07,22.38,27.54,-52.33,476
9110,-0.86,-0.46,0.16,44.84,45.26,-72.75,477
9131,-1.18,-0.33,-0.0,78.08,65.62,-79.78,479
9150,-1.36,-0.37,0.15,113.39,84.24,-99.57,480
9170,-1.77,-0.29,0.35,152.52,113.0,-115.91,484
9190,-1.89,-0.05,0.5,168.95,86.76,-131.66,487
9210,-1.29,0.04,0.33,90.46,59.42,-147.43,488
9230,-1.0,-0.19,-0.02,13.59,58.49,-122.47,487
9250,-0.87,-0.23,-0.3,-78.62,-4.49,-87.83,486
9270,-0.5,-0.57,-0.38,-118.23,-8.32,-77.86,485
9290,-0.45,-1.24,-0.21,-77.19,7.25,-77.77,486
9310,-0.44,-1.2,-0.09,-5.63,-8.22,3.99,487
9330,-0.13,-0.72,-0.13,53.53,-21.64,82.34,487
9350,-0.14,-0.58,-0.23,54.69,-36.16,138.77,486
9370,-0.23,-0.67,-0.24,55.82,-44.17,185.28,485
9391,-0.45,-0.73,-0.19,52.52,-68.42,218.09,483
9410,-0.57,-0.55,-0.13,23.02,-99.42,246.54,482
9431,-0.73,-0.5,-0.04,-7.31,-119.84,256.54,481
9450,-0.94,-0.49,0.04,-43.14,-129.87,249.93,478
9470,-0.93,-0.6,0.1,-73.17,-156.6,225.41,475
9490,-0.88,-0.55,0.24,-63.37,-136.84,212.72,473
9510,-0.81,-0.48,0.37,-48.81,-118.02,197.22,472
9530,-0.69,-0.5,0.04,-17.01,-74.77,142.95,471
9550,-1.03,-0.28,0.19,20.98,-48.64,99.7,470
9570,-0.87,0.21,0.04,9.82,-34.84,80.52,470
9590,-0.98,0.19,0.08,-8.23,-12.4,1.61,471
9610,-0.76,-0.12,0.01,-21.48,-4.38,-41.62,471
9630,-0.59,-0.47,-0.09,-21.36,18.12,-86.88,471
9650,-0.58,-0.55,-0.27,-8.18,63.1,-96.93,471
9670,-1.63,-0.32,0.35,42.77,76.16,-20.64,470
9691,-1.44,0.13,0.26,-4.84,-3.41,-5.63,473
9710,-0.81,-0.05,-0.01,-68.87,23.86,-86.67,472
9731,-0.75,-0.52,0.08,-101.04,10.04,-71.55,472
9750,-0.57,-0.79,-0.09,-44.93,27.29,-24.09,472
9771,-0.91,-0.56,0.04,9.47,45.46,-32.55,474
9790,-1.02,-0.13,0.06,-1.74,32.87,-26.41,473
9810,-0.94,-0.17,-0.04,-32.99,24.06,-25.71,472
9830,-0.78,-0.53,-0.06,-30.61,28.67,-34.55,472
9850,-0.95,-0.49,0.02,-3.43,32.3,-29.84,473
9870,-0.95,-0.24,-0.03,3.71,30.0,-21.81,473
9890,-0.9,-0.22,-0.03,-8.1,26.96,-25.68,472
9910,-0.94,-0.27,0.04,-16.94,24.0,-27.23,472
9930,-0.86,-0.28,0.07,-17.46,24.29,-28.75,473
9950,-0.87,-0.34,0.02,-6.91,28.75,-29.88,473
9970,-0.93,-0.25,-0.0,5.16,32.01,-31.49,472
9990,-0.96,-0.12,-0.02,5.59,32.73,-34.27,472
10010,-0.91,-0.12,-0.04,-4.78,27.28,-35.02,472
10031,-0.88,-0.2,0.01,-13.97,26.5,-40.97,472
10050,-0.88,-0.26,0.06,-12.46,28.12,-46.85,473
10071,-0.86,-0.35,0.02,-4.53,31.87,-49.86,473
10090,-0.84,-0.3,-0.03,-6.93,28.61,-47.92,473
10110,-0.88,-0.32,-0.12,-8.58,30.42,-51.97,473
10130,-0.94,-0.38,-0.04,-9.95,24.64,-55.95,474
10150,-0.79,-0.51,-0.07,1.54,29.89,-60.94,475
10170,-0.81,-0.54,-0.1,15.06,38.03,-59.77,476
10190,-0.88,-0.53,-0.11,23.94,42.71,-59.91,476
10210,-0.86,-0.54,-0.04,27.12,44.91,-62.93,477
10230,-0.87,-0.59,0.1,40.54,55.0,-73.42,479
10250,-1.12,-0.49,0.21,69.09,72.16,-81.71,481
10270,-1.44,-0.26,0.16,81.85,74.39,-84.33,483
10290,-1.55,-0.17,0.34,80.66,63.28,-108.36,485
10310,-1.65,-0.36,0.5,89.19,79.52,-140.59,488
10331,-1.67,-0.39,0.36,124.19,78.12,-137.11,490
10350,-1.28,-0.09,0.12,76.78,40.9,-112.94,490
10371,-0.61,-0.3,-0.41,-32.24,8.7,-95.14,487
10390,-0.34,-0.52,-0.53,-110.2,-10.37,-88.15,485
10411,-0.48,-0.94,-0.51,-97.46,0.1,-62.04,486
10430,-0.39,-1.02,-0.42,-31.62,-29.76,-14.87,486
10450,-0.14,-0.96,-0.25,31.64,-28.23,30.28,486
10470,-0.32,-0.69,-0.01,52.41,-30.11,90.0,487
10490,-0.14,-0.74,-0.18,57.04,-68.69,139.19,486
10510,-0.14,-0.65,-0.15,54.7,-56.23,178.2,485
10530,-0.39,-0.75,-0.16,47.9,-71.71,203.42,484
10550,-0.41,-0.69,-0.11,29.22,-87.62,224.64,483
10570,-0.49,-0.66,-0.01,6.31,-97.38,237.99,482
10590,-0.61,-0.6,0.1,-5.08,-102.98,249.7,480
10610,-0.65,-0.62,0.02,-36.07,-114.06,243.41,478
10630,-0.9,-0.53,0.07,-37.57,-108.31,232.66,475
10650,-1.17,-0.5,0.12,-19.56,-117.3,226.03,472
10671,-1.06,-0.42,0.15,-1.36,-99.96,184.61,470
10690,-0.94,-0.13,0.27,13.44,-65.59,147.51,469
10711,-0.83,-0.0,0.05,30.64,-23.3,100.03,468
10730,-0.93,0.17,0.08,49.38,1.0,57.48,469
10750,-0.91,0.27,0.15,30.63,11.36,5.56,469
10770,-0.85,0.23,0.02,-7.33,16.21,-32.53,469
10790,-0.84,0.08,-0.05,-58.18,13.71,-68.27,469
10810,-0.79,-0.26,-0.1,-94.35,16.06,-94.56,469
10830,-0.95,-0.61,0.27,-68.0,33.4,-67.91,470
10850,-1.64,-0.34,0.6,-41.81,12.58,-5.34,472
10870,-0.86,-0.31,0.15,-51.4,9.69,-61.07,475
10890,-0.73,-0.44,-0.04,-64.14,27.92,-64.23,472
10910,-0.72,-0.43,-0.03,-55.69,25.34,-35.68,471
10930,-0.88,-0.53,-0.08,-16.26,37.19,-35.14,471
10950,-0.96,-0.39,-0.0,-15.57,29.72,-29.48,474
10971,-0.88,-0.46,0.06,-25.25,29.52,-35.88,472
10990,-0.82,-0.57,0.03,-11.39,31.36,-34.85,472
11011,-0.88,-0.45,-0.08,8.95,34.64,-26.44,472
11030,-0.93,-0.29,-0.05,16.08,33.87,-25.52,472
11051,-0.98,-0.15,-0.02,12.81,32.07,-25.94,472
11070,-0.95,-0.09,-0.02,0.61,29.11,-25.28,471
11090,-0.91,-0.13,0.04,-5.17,29.26,-28.76,471
11110,-0.97,-0.13,0.05,0.14,32.18,-33.83,471
11130,-0.95,-0.04,0.02,-0.17,33.91,-35.45,471
11150,-0.91,-0.08,-0.01,-0.67,35.63,-41.97,470
11170,-0.98,-0.13,-0.02,-4.85,33.07,-47.11,470
11190,-0.93,-0.2,-0.05,-22.09,21.1,-46.75,470
11210,-0.83,-0.29,-0.05,-29.08,20.39,-49.23,471
11230,-0.86,-0.35,0.0,-22.38,23.17,-49.23,471
11250,-0.85,-0.39,0.02,-8.15,29.72,-54.15,472
11270,-0.87,-0.32,-0.0,-4.94,25.25,-52.47,472
11290,-0.88,-0.26,-0.02,-8.17,28.82,-55.2,473
11311,-0.88,-0.33,-0.05,-5.07,33.52,-59.69,473
11330,-0.83,-0.36,-0.04,0.41,37.37,-63.95,474
11351,-0.86,-0.41,-0.01,5.12,43.02,-69.6,475
11370,-0.92,-0.41,0.01,12.34,51.45,-71.92,477
11390,-1.01,-0.31,-0.01,25.74,64.13,-77.37,479
11410,-1.13,-0.32,0.08,30.58,60.23,-88.04,481
11430,-1.22,-0.36,0.06,22.61,60.33,-103.46,483
11450,-1.62,-0.46,0.25,30.51,69.89,-106.59,486
11470,-1.81,-0.48,0.39,70.63,78.62,-117.51,488
11490,-1.61,-0.52,0.5,98.87,70.68,-142.17,490
11510,-0.98,-0.51,0.02,73.45,57.46,-136.36,491
11530,-0.49,-0.54,-0.39,1.7,28.18,-105.94,488
11550,-0.22,-0.53,-0.52,-58.32,-1.16,-77.88,486
11570,-0.25,-0.87,-0.43,-59.31,1.86,-47.72,486
11590,-0.46,-0.94,-0.28,-14.33,-12.19,3.33,486
11611,-0.34,-0.76,-0.02,20.83,-44.05,39.99,487
11630,-0.33,-0.65,-0.08,22.34,-71.24,102.72,487
11651,-0.17,-0.68,-0.21,26.15,-81.93,148.55,486
11670,-0.33,-0.73,-0.15,29.24,-80.26,183.53,485
11691,-0.4,-0.83,-0.19,37.01,-104.54,206.51,484
11710,-0.39,-0.81,-0.15,38.41,-115.42,232.54,483
11730,-0.58,-0.63,0.01,22.08,-120.95,256.9,482
11750,-0.69,-0.55,0.09,-10.46,-141.13,264.64,479
11770,-0.72,-0.53,0.12,-55.34,-135.18,257.32,476
11790,-1.03,-0.52,0.23,-63.68,-131.91,243.73,473
11810,-0.96,-0.47,0.11,-28.84,-117.01,219.42,471
11830,-0.99,-0.49,0.06,18.19,-76.74,166.35,469
11850,-0.84,0.04,0.15,47.3,-36.25,128.48,468
11870,-0.93,0.46,0.11,43.28,-5.01,63.16,469
11890,-0.81,0.41,0.06,21.93,3.69,-23.1,469
11910,-0.68,0.16,-0.03,-21.08,17.31,-82.99,469
11930,-0.66,-0.28,-0.14,-63.69,25.8,-125.71,469
11951,-0.71,-0.76,0.16,-28.85,59.25,-109.86,468
11970,-1.94,-0.47,0.61,18.12,44.29,40.74,470
11991,-1.13,0.28,-0.04,-23.98,15.58,-62.18,475
12010,-0.83,-0.36,-0.04,-99.02,28.21,-99.07,472
12030,-0.44,-1.0,-0.09,-55.4,27.84,-62.9,471
12050,-0.69,-0.74,-0.06,38.55,65.74,-31.54,472
12070,-1.09,-0.16,0.12,33.36,43.43,-31.46,477
12090,-0.95,-0.15,0.0,-0.18,43.78,-38.44,474
12110,-0.9,-0.36,-0.17,-11.36,39.48,-39.59,473
12130,-0.81,-0.55,-0.15,14.22,49.57,-46.23,474
12150,-1.0,-0.46,0.04,41.01,44.35,-34.67,475
12170,-0.91,-0.15,0.0,29.8,41.66,-36.62,475
12190,-0.94,-0.21,-0.03,9.41,36.68,-40.96,474
12210,-0.91,-0.31,-0.08,2.09,26.21,-36.39,474
12230,-0.87,-0.36,-0.05,-0.76,25.98,-34.29,474
12251,-0.9,-0.4,0.0,-1.07,23.05,-32.84,474
12270,-0.83,-0.41,-0.02,3.68,25.13,-31.51,474
12291,-0.86,-0.31,-0.03,3.57,24.85,-30.29,474
12310,-0.92,-0.26,-0.06,0.86,25.05,-30.97,474
12331,-0.92,-0.2,-0.01,-1.37,24.42,-35.4,474
12350,-0.92,-0.19,0.04,1.25,25.91,-40.5,474
12370,-0.93,-0.24,0.0,-0.61,25.13,-43.17,475
12390,-0.9,-0.3,-0.02,1.33,27.1,-49.95,475
12410,-0.92,-0.28,-0.0,14.78,34.23,-54.15,475
12430,-0.88,-0.31,-0.05,19.82,36.59,-59.55,476
12450,-0.82,-0.42,-0.02,20.99,39.11,-67.25,476
12470,-0.9,-0.44,-0.0,32.19,50.21,-70.17,477
12490,-0.98,-0.37,-0.06,36.09,47.2,-70.88,478
12510,-0.92,-0.39,-0.11,19.82,41.0,-76.17,479
12530,-0.97,-0.46,0.01,18.9,42.53,-85.66,480
12550,-1.2,-0.27,0.12,34.23,50.03,-89.57,483
12570,-1.3,-0.28,0.19,32.29,41.29,-107.71,485
12591,-1.21,-0.48,0.28,40.06,53.28,-126.72,487
12610,-1.78,-0.74,0.52,72.28,64.88,-122.15,490
12631,-1.58,-0.36,0.28,87.54,26.45,-109.59,491
12650,-1.07,-0.15,-0.19,8.37,2.1,-98.56,490
12670,-0.77,-0.37,-0.49,-91.71,-10.35,-83.52,488
12690,-0.63,-0.69,-0.57,-134.07,-32.69,-78.62,487
12710,-0.28,-0.95,-0.48,-89.59,-59.88,-42.52,486
12730,0.03,-1.08,-0.63,-18.65,-44.71,-6.75,486
12750,0.01,-0.82,-0.28,27.93,-41.93,49.19,486
12770,-0.34,-0.73,-0.17,43.41,-68.02,100.95,486
12790,-0.1,-0.55,-0.24,37.64,-83.88,151.61,485
12810,-0.11,-0.64,-0.21,32.26,-87.91,187.74,484
12830,-0.26,-0.74,-0.17,28.83,-89.32,220.92,483
12850,-0.45,-0.78,-0.13,23.62,-107.65,239.59,482
12870,-0.64,-0.7,0.03,11.77,-119.42,258.8,481
12891,-0.75,-0.57,0.12,-24.87,-128.75,258.54,478
12910,-0.84,-0.57,0.21,-59.71,-128.71,248.55,475
12931,-1.04,-0.22,0.25,-77.25,-125.19,255.25,472
12950,-0.97,-0.44,-0.05,-44.64,-90.52,187.9,471
12971,-1.05,-0.49,0.14,-0.33,-77.12,149.51,469
12990,-0.71,-0.13,0.14,40.95,-19.44,97.07,468
13010,-1.01,0.17,0.15,55.62,8.45,40.8,469
13030,-0.9,0.19,0.1,37.21,12.55,-8.62,470
13050,-0.78,-0.02,0.02,-3.91,19.72,-59.65,469
13070,-0.73,-0.18,-0.11,-43.05,26.55,-87.63,469
13090,-0.74,-0.55,0.11,-44.59,31.43,-98.33,468
13110,-1.43,-0.39,0.5,2.46,57.48,-2.2,468
13130,-1.61,0.05,0.29,-17.1,-3.55,-13.25,473
13150,-0.81,-0.2,-0.01,-62.33,32.76,-89.94,472
13170,-0.7,-0.56,-0.01,-60.47,24.07,-62.84,472
13190,-0.61,-0.57,0.03,4.83,38.9,-30.15,471
13210,-1.07,-0.14,0.13,7.56,34.71,-35.6,474
13231,-0.85,-0.09,0.14,-24.06,31.94,-42.82,474
13250,-0.92,-0.41,-0.1,-21.3,43.43,-43.77,474
13271,-0.87,-0.53,-0.13,3.56,37.97,-44.65,474
13290,-0.83,-0.56,-0.04,30.34,47.33,-44.53,474
13310,-0.96,-0.34,0.02,31.77,37.46,-36.2,475
13330,-0.86,-0.27,-0.03,9.38,32.27,-40.18,474
13350,-0.86,-0.47,-0.05,2.34,34.06,-40.46,474
13370,-0.86,-0.5,-0.06,13.31,28.64,-31.46,474
13390,-0.86,-0.42,-0.04,21.41,32.39,-31.49,475
13410,-0.9,-0.35,0.03,25.96,32.52,-33.52,475
13430,-0.87,-0.31,0.01,29.5,34.1,-33.33,475
13450,-0.96,-0.15,-0.08,18.93,29.77,-31.1,475
13470,-0.91,-0.13,-0.1,-0.87,19.57,-33.42,474
13490,-0.9,-0.22,-0.05,-10.15,17.81,-39.57,475
13510,-0.89,-0.31,0.0,-9.16,17.77,-42.73,476
13531,-0.87,-0.33,0.03,-0.04,22.84,-46.5,476
13550,-0.9,-0.33,-0.04,8.87,26.23,-51.05,476
13571,-0.9,-0.27,-0.16,-0.14,19.07,-50.41,476
13590,-0.88,-0.3,-0.09,-15.19,11.13,-52.29,476
13611,-0.88,-0.45,-0.11,-19.01,12.36,-54.12,476
13630,-0.77,-0.6,-0.13,-15.11,19.51,-51.46,477
13650,-0.79,-0.5,-0.03,5.64,29.07,-54.03,477
13670,-0.93,-0.37,0.03,15.38,39.05,-59.65,478
13690,-1.0,-0.32,0.12,31.02,53.62,-74.13,481
13710,-1.32,-0.1,0.16,61.42,77.45,-81.42,483
13730,-1.95,-0.13,0.33,68.8,78.65,-95.46,486
13750,-1.72,-0.28,0.39,56.2,46.9,-139.77,488
13770,-1.27,-0.45,0.37,44.75,41.92,-137.25,489
13790,-1.03,-0.49,-0.09,20.95,34.35,-120.12,488
13810,-0.61,-0.49,-0.45,-48.81,-21.32,-92.5,485
13830,-0.19,-0.48,-0.79,-101.27,-36.17,-69.42,484
13850,-0.33,-0.99,-0.44,-92.96,4.39,-78.43,485
13871,-0.46,-1.25,-0.15,-19.56,-14.13,-34.33,487
13890,-0.14,-1.16,-0.09,44.61,-32.95,23.5,487
13911,-0.21,-0.66,0.03,71.85,-30.78,86.38,487
13930,-0.31,-0.5,-0.13,52.87,-59.59,138.6,486
13950,-0.4,-0.52,-0.1,20.83,-65.84,175.87,485
13970,-0.51,-0.73,-0.14,12.12,-86.09,194.23,483
13990,-0.55,-0.71,-0.12,10.92,-99.51,215.07,483
14010,-0.69,-0.63,0.02,11.54,-107.39,227.22,481
14030,-0.88,-0.55,0.18,-1.66,-125.96,233.9,479
14050,-0.82,-0.54,0.13,-31.57,-125.48,215.45,476
14070,-0.75,-0.42,0.26,-39.2,-107.24,224.14,473
14090,-0.85,-0.47,-0.03,-19.8,-96.25,209.97,471
14110,-1.11,-0.51,0.01,35.91,-63.24,162.31,469
14130,-0.98,-0.12,0.19,39.01,-59.8,148.03,468
14150,-0.82,0.01,0.12,29.44,-29.18,97.28,467
14171,-0.96,0.06,0.13,28.61,-6.64,44.35,468
14190,-0.88,0.28,0.15,10.02,-1.45,8.28,468
14211,-0.79,0.02,0.01,-25.66,8.53,-47.89,468
14230,-0.76,-0.21,-0.02,-57.02,9.19,-80.44,469
14251,-0.56,-0.44,-0.08,-77.31,16.52,-99.48,468
14270,-0.68,-0.65,0.12,-44.67,37.33,-78.36,467
14290,-1.56,-0.28,0.58,2.6,35.4,19.38,470
14310,-1.39,0.08,0.28,-25.11,1.13,-33.48,474
14330,-0.86,-0.19,0.04,-74.23,28.49,-79.14,472
14350,-0.65,-0.64,-0.04,-61.11,20.99,-53.84,471
14370,-0.6,-0.67,-0.04,22.99,53.48,-31.17,471
14390,-1.08,-0.25,0.04,35.76,48.1,-36.84,474
14410,-1.04,-0.03,0.02,-2.64,38.38,-36.85,473
14430,-0.9,-0.27,-0.07,-28.53,27.25,-37.84,472
14450,-0.84,-0.45,-0.09,-23.54,28.99,-41.16,473
14470,-0.96,-0.5,-0.03,1.15,34.71,-42.84,474
14490,-0.89,-0.32,-0.03,11.09,29.36,-37.37,474
14511,-0.9,-0.27,-0.02,3.7,27.92,-39.94,473
14530,-0.93,-0.3,-0.04,-3.11,23.63,-38.88,474
14551,-0.86,-0.4,-0.07,-2.49,24.49,-33.74,474
14570,-0.86,-0.43,-0.02,-0.81,20.62,-30.15,473
14590,-0.85,-0.38,0.06,-2.36,19.75,-30.85,473
14610,-0.85,-0.36,-0.01,-2.2,22.09,-30.39,473
14630,-0.9,-0.3,-0.06,-5.2,19.43,-26.04,473
14650,-0.88,-0.3,0.02,-2.46,21.04,-30.75,473
14670,-0.96,-0.2,0.03,0.02,22.33,-33.69,474
14690,-0.93,-0.16,-0.03,-10.96,15.33,-35.91,474
14710,-0.86,-0.26,-0.03,-17.51,17.36,-42.5,473
14730,-0.89,-0.31,-0.01,-12.23,21.0,-46.41,474
14750,-0.87,-0.36,-0.01,-2.79,21.68,-51.55,475
14770,-0.84,-0.35,-0.03,-3.14,23.72,-54.53,475
14790,-0.85,-0.41,-0.04,-1.27,28.55,-59.69,476
14811,-0.87,-0.38,0.0,12.72,36.39,-64.17,476
14830,-0.87,-0.37,0.03,31.19,51.98,-75.28,478
14851,-1.12,-0.4,0.08,61.59,72.68,-95.91,480
14870,-1.94,-0.36,0.67,121.68,86.06,-109.23,485
14891,-2.0,-0.19,0.71,153.88,77.11,-132.36,490
14910,-1.45,0.04,0.43,94.72,75.52,-159.55,490
14930,-1.25,-0.25,-0.13,13.28,42.45,-121.43,489
14950,-0.76,-0.52,-0.47,-85.25,-28.98,-104.72,485
14970,-0.09,-0.74,-0.7,-116.04,-27.04,-80.21,483
14990,-0.2,-1.26,-0.28,-66.44,23.84,-67.75,484
15010,-0.53,-1.33,-0.03,15.79,-14.71,-1.66,485
15030,-0.04,-0.84,-0.17,59.54,-30.08,46.95,485
15050,-0.08,-0.48,-0.13,49.41,-41.61,106.08,485
15070,-0.14,-0.52,-0.24,23.39,-62.92,151.56,484
15090,-0.28,-0.67,-0.19,4.52,-74.89,184.8,483
15110,-0.38,-0.78,-0.19,5.27,-97.1,206.05,482
15130,-0.49,-0.68,-0.08,-4.03,-113.5,232.7,481
15151,-0.65,-0.66,-0.03,-23.2,-125.68,242.26,480
15170,-0.78,-0.61,-0.02,-45.14,-127.19,229.93,477
15191,-0.94,-0.54,0.01,-56.27,-127.65,214.86,474
15210,-0.99,-0.6,0.08,-36.55,-129.61,205.77,471
15230,-0.84,-0.45,0.24,-0.04,-86.43,182.48,469
15250,-0.79,-0.33,0.16,29.51,-49.55,143.22,468
15270,-0.83,-0.03,-0.05,45.74,-10.54,106.03,468
15290,-0.97,0.24,0.2,35.67,5.91,54.12,469
15310,-0.86,0.36,0.18,-12.44,-2.98,18.31,468
15330,-0.81,0.28,0.09,-59.33,5.74,-34.49,468
15350,-0.78,0.01,0.06,-107.97,2.09,-72.61,468
15370,-1.05,-0.6,0.52,-86.4,22.53,-53.37,466
15390,-1.56,-0.42,0.6,-34.52,-8.55,18.26,468
15410,-0.84,-0.09,-0.02,-15.2,28.01,-62.33,471
15430,-1.06,-0.13,-0.26,-71.42,9.46,-38.27,469
15451,-0.71,-0.53,-0.22,-51.42,22.2,-15.31,468
15470,-0.93,-0.78,0.01,4.81,34.44,-29.74,468
15491,-0.98,-0.47,0.09,7.07,22.16,-26.12,472
15510,-0.79,-0.42,-0.02,-10.38,24.01,-17.28,474
15531,-0.88,-0.55,-0.17,-1.63,23.58,-12.97,471
15550,-0.96,-0.4,-0.07,15.1,19.83,-6.49,470
15570,-0.93,-0.2,0.13,22.17,18.35,-3.2,470
15590,-0.95,0.01,0.17,6.43,12.59,-3.23,473
15610,-0.93,-0.09,0.13,-8.59,12.06,-10.97,473
15630,-0.94,-0.21,0.02,-2.5,12.75,-8.46,472
15650,-0.95,-0.14,0.04,8.61,15.97,-9.94,471
15670,-1.01,0.0,0.08,0.44,7.92,-8.2,472
15690,-0.97,-0.06,0.08,-16.9,4.15,-13.08,473
15710,-0.92,-0.19,0.05,-17.16,5.62,-13.51,473
15730,-0.95,-0.18,0.1,-7.07,8.81,-16.76,472
15750,-0.97,-0.23,0.07,-6.4,8.16,-14.13,473
15770,-0.88,-0.26,0.09,-10.58,5.65,-11.72,473
15791,-0.82,-0.49,0.03,-2.67,9.66,-13.08,473
15810,-0.96,-0.46,-0.07,11.22,12.1,-9.71,473
15831,-0.9,-0.31,-0.05,20.9,8.39,-3.07,472
15850,-1.01,-0.09,0.01,11.62,4.7,-1.83,472
15870,-0.97,-0.1,0.07,-11.75,-9.64,-4.93,472
15890,-0.85,-0.23,0.12,-21.66,-8.11,-6.76,473
15910,-0.87,-0.39,0.11,-9.36,-1.94,-7.94,473
15930,-0.92,-0.29,0.07,3.6,1.84,-6.36,473
15950,-0.94,-0.17,0.07,4.93,1.11,-5.52,473
15970,-0.96,-0.17,0.1,-1.31,-3.93,-4.94,472
15990,-0.89,-0.23,0.1,-5.52,-2.75,-3.17,472
16010,-0.93,-0.28,0.11,-8.0,-3.22,-2.26,473
16030,-0.91,-0.27,0.1,-6.69,-3.35,-2.38,472
16050,-0.91,-0.24,0.06,-4.98,-0.98,-2.76,472
16070,-0.87,-0.31,0.1,2.43,3.08,-3.66,472
16091,-0.96,-0.24,0.13,11.96,5.91,0.03,472
16110,-0.95,-0.15,0.04,4.93,2.2,0.11,472
16131,-0.91,-0.23,0.05,-1.72,2.15,-1.19,471
16150,-0.92,-0.29,0.09,2.98,1.13,0.48,471
16171,-0.91,-0.23,0.07,6.22,2.24,-1.63,472
16190,-0.94,-0.21,0.05,3.44,0.2,-0.47,472
16210,-0.93,-0.2,0.06,1.93,-0.2,-3.26,471
16230,-0.94,-0.22,0.06,2.08,0.16,-4.43,471
16250,-0.93,-0.22,0.04,2.35,-0.14,-3.31,471
16270,-0.93,-0.23,0.05,3.45,2.52,-4.72,471
16290,-0.94,-0.23,0.07,0.86,1.57,-1.65,471
