Time,AccX,AccY,AccZ,GyroX,GyroY,GyroZ,Capacitance
7268,-0.91,-0.33,0.05,8.19,-0.7,-8.41,493
7288,-0.92,-0.3,0.04,11.78,-2.02,-10.47,491
7308,-0.92,-0.24,0.04,17.67,-0.35,-12.24,491
7328,-0.93,-0.18,0.05,19.06,0.02,-13.14,491
7348,-0.93,-0.2,0.04,16.51,-1.26,-15.34,491
7368,-0.93,-0.19,0.04,14.34,-1.72,-16.23,490
7388,-0.92,-0.23,0.03,15.76,-0.76,-20.78,490
7408,-0.96,-0.21,0.03,17.32,-1.28,-22.73,490
7429,-0.95,-0.22,0.06,15.27,-5.98,-26.41,490
7448,-0.91,-0.24,0.07,19.4,-6.41,-30.58,489
7469,-0.96,-0.22,0.09,26.71,-3.86,-35.51,490
7488,-0.99,-0.14,0.16,27.75,-0.93,-37.57,490
7508,-0.95,-0.13,0.17,12.43,0.19,-37.27,491
7528,-0.94,-0.25,0.17,-5.52,-1.81,-38.5,492
7548,-0.88,-0.35,0.16,-13.9,-1.12,-32.15,492
7568,-0.8,-0.52,0.08,-6.59,5.9,-30.53,491
7588,-0.79,-0.56,0.13,10.91,12.45,-17.59,491
7608,-0.84,-0.31,0.13,10.89,5.88,8.09,491
7628,-0.97,-0.18,0.08,-8.07,-3.2,34.35,490
7648,-1.01,-0.24,0.13,-15.76,-9.98,45.96,490
7668,-0.97,-0.27,0.14,-12.39,-9.49,54.81,491
7688,-0.96,-0.27,0.17,-8.59,-11.54,61.76,491
7708,-0.88,-0.26,0.13,-4.51,-12.65,68.47,491
7729,-0.95,-0.25,0.13,-1.86,-9.2,73.18,491
7749,-0.97,-0.24,0.15,-6.34,-13.23,77.5,491
7770,-0.91,-0.23,0.15,-9.69,-15.89,80.2,491
7789,-0.89,-0.25,0.14,-8.68,-14.01,80.06,491
7810,-0.88,-0.21,0.13,-5.69,-14.44,83.56,490
7829,-0.89,-0.15,0.11,-7.23,-16.07,82.23,490
7849,-0.9,-0.26,0.11,-1.78,-11.75,72.49,490
7869,-0.85,-0.27,0.17,11.78,-6.62,67.91,490
7889,-0.85,-0.14,0.11,15.17,-6.64,63.33,491
7909,-0.91,-0.09,0.1,6.71,-6.01,56.15,491
7929,-0.91,-0.09,0.16,-4.22,-10.28,47.24,491
7949,-0.89,-0.07,0.07,-9.5,-9.99,33.48,491
7969,-0.92,-0.15,0.1,-11.08,-5.4,19.18,490
7989,-0.87,-0.15,0.09,-7.63,-3.83,6.66,490
8009,-0.9,-0.14,0.07,-7.7,-0.19,-7.28,490
8029,-0.93,-0.14,0.09,-10.96,1.65,-18.55,490
8049,-0.92,-0.15,0.09,-17.76,-1.14,-31.19,490
8070,-0.89,-0.18,0.06,-19.52,2.14,-41.77,490
8090,-0.82,-0.43,0.06,-13.66,4.22,-44.9,489
8111,-1.02,-0.33,0.12,24.05,22.37,-27.51,490
8130,-1.34,0.1,0.33,34.48,21.4,-9.51,490
8151,-1.09,0.07,0.13,-5.69,-2.27,-28.88,490
8170,-0.84,-0.11,0.1,-44.16,-14.54,-30.3,489
8190,-0.88,-0.44,0.04,-34.47,1.23,-19.91,489
8210,-0.89,-0.44,0.05,21.21,24.85,-27.27,490
8230,-0.93,-0.0,0.22,29.56,22.37,-25.49,490
8250,-1.04,0.07,0.24,12.11,15.98,-25.37,490
8270,-0.93,-0.08,0.08,-13.89,3.81,-27.74,489
8290,-0.87,-0.33,0.0,-10.48,11.15,-32.14,489
8310,-0.93,-0.21,0.02,0.2,14.59,-26.94,489
8330,-0.95,-0.14,0.06,1.88,14.54,-28.78,489
8350,-0.9,-0.1,0.09,-2.65,12.8,-28.78,489
8370,-0.89,-0.15,0.09,-4.74,14.62,-30.14,489
8390,-0.9,-0.33,0.04,5.69,20.6,-30.99,489
8411,-0.92,-0.29,-0.0,8.31,19.07,-25.51,489
8430,-0.87,-0.29,0.01,0.59,17.4,-21.04,488
8451,-0.94,-0.32,0.08,0.75,17.56,-20.75,488
8470,-0.92,-0.32,0.03,-0.99,13.11,-19.49,488
8491,-0.89,-0.34,-0.04,4.57,15.3,-18.58,488
8510,-0.96,-0.2,-0.05,7.98,16.51,-16.69,488
8530,-0.91,-0.12,-0.03,-10.15,10.54,-13.2,488
8550,-0.91,-0.24,0.03,-24.1,6.94,-13.11,487
8570,-0.91,-0.41,0.1,-12.73,9.36,-16.47,487
8590,-0.92,-0.33,0.04,1.04,10.56,-16.23,488
8610,-0.92,-0.29,-0.08,-0.05,10.37,-17.07,488
8630,-0.92,-0.26,-0.04,3.41,11.84,-18.81,488
8650,-0.95,-0.18,0.02,0.69,8.62,-20.07,487
8670,-0.91,-0.22,-0.0,-1.89,8.45,-23.54,487
8690,-0.95,-0.31,-0.05,-5.12,2.69,-23.23,487
8710,-0.86,-0.46,0.01,-6.48,0.43,-23.78,487
8730,-0.86,-0.51,0.07,6.98,4.25,-24.14,487
8751,-0.87,-0.39,0.03,13.79,8.75,-20.91,487
8770,-0.83,-0.33,-0.03,0.57,5.76,-13.97,487
8791,-0.89,-0.38,0.04,-1.67,8.85,-16.46,487
8810,-0.91,-0.25,0.03,3.4,8.82,-17.54,487
8830,-0.9,-0.24,-0.0,1.35,9.91,-21.92,487
8850,-0.91,-0.29,-0.04,8.17,12.62,-27.65,488
8870,-0.96,-0.29,-0.01,18.14,10.17,-35.98,488
8890,-0.94,-0.31,0.02,24.2,7.91,-41.66,488
8910,-0.91,-0.41,-0.01,33.82,9.87,-45.51,488
8930,-0.95,-0.37,-0.06,43.38,12.65,-48.75,489
8950,-1.0,-0.26,-0.09,46.34,13.87,-51.13,489
8970,-1.1,-0.19,-0.07,48.71,13.15,-56.4,489
8990,-1.17,-0.09,0.08,46.45,10.19,-65.92,490
9010,-1.1,-0.1,0.04,42.59,10.42,-75.17,491
9030,-1.02,-0.19,0.13,49.96,14.83,-90.14,492
9051,-0.98,-0.13,0.17,55.26,21.75,-98.52,493
9070,-1.06,-0.22,0.1,48.89,22.43,-109.2,495
9091,-1.11,-0.24,0.17,50.66,19.79,-115.25,497
9110,-1.14,-0.24,0.3,66.66,32.14,-123.71,498
9131,-1.04,-0.39,0.29,53.21,20.42,-111.68,498
9150,-0.88,-0.47,0.26,32.72,3.15,-96.56,497
9170,-0.75,-0.59,0.0,-2.99,-19.48,-81.3,495
9190,-0.71,-0.65,-0.22,-46.76,-23.2,-75.85,494
9210,-0.62,-0.9,-0.35,-74.65,-34.77,-61.74,492
9230,-0.36,-1.06,-0.26,-39.69,-19.48,-39.43,491
9250,-0.35,-1.06,-0.09,33.3,1.03,10.31,492
9270,-0.46,-0.65,0.01,54.74,-1.52,64.96,492
9290,-0.36,-0.47,0.02,19.3,-18.35,115.38,492
9310,-0.45,-0.56,0.04,-27.09,-45.14,157.09,491
9330,-0.48,-0.77,0.07,-39.47,-59.51,189.16,492
9350,-0.52,-0.83,0.1,-16.42,-46.8,208.12,492
9370,-0.66,-0.66,0.2,-5.32,-39.99,218.99,493
9391,-0.78,-0.48,0.22,-36.16,-50.59,227.91,493
9410,-0.85,-0.46,0.12,-62.77,-55.17,224.35,492
9431,-0.89,-0.57,0.08,-57.67,-49.0,208.69,491
9450,-0.88,-0.63,0.09,-31.46,-37.09,190.77,490
9470,-0.86,-0.42,0.15,-11.14,-28.64,179.8,489
9490,-0.82,-0.35,0.13,-8.96,-23.35,155.74,488
9510,-0.87,-0.47,0.11,9.61,-5.46,131.31,488
9530,-0.83,-0.25,0.07,27.46,7.76,111.85,488
9550,-0.92,-0.07,-0.02,17.67,4.91,76.52,487
9570,-0.99,0.04,0.1,-4.01,0.57,51.47,487
9590,-0.95,-0.02,0.07,-22.77,-6.68,20.28,487
9610,-0.91,-0.12,-0.01,-23.52,-2.19,-15.42,488
9630,-0.92,-0.13,0.04,-37.09,-1.78,-36.69,487
9650,-0.81,-0.18,-0.02,-63.17,-11.48,-54.0,487
9670,-0.87,-0.25,-0.0,-62.51,3.73,-63.45,486
9691,-1.65,-0.03,0.62,-16.41,48.69,-11.45,487
9710,-1.05,0.08,0.25,-32.68,-23.17,-20.9,489
9731,-0.79,-0.19,0.13,-31.11,0.98,-74.7,489
9750,-1.03,-0.14,0.2,-62.67,-5.98,-47.94,488
9771,-0.75,-0.4,-0.23,-56.18,6.66,-31.04,487
9790,-0.66,-0.67,0.15,-2.86,36.13,-44.76,486
9810,-0.99,-0.38,0.3,28.92,42.01,-43.85,487
9830,-0.98,-0.11,0.25,17.11,25.23,-41.27,487
9850,-0.84,-0.27,0.0,10.02,25.59,-41.04,486
9870,-0.95,-0.33,-0.06,20.79,27.82,-44.17,486
9890,-0.93,-0.1,-0.08,15.49,25.36,-37.48,486
9910,-0.93,-0.16,-0.06,-1.43,20.14,-34.23,485
9930,-0.92,-0.27,-0.02,-11.15,16.25,-34.17,486
9950,-0.9,-0.33,-0.0,-11.28,15.65,-32.65,486
9970,-0.94,-0.33,0.05,-6.94,14.11,-30.07,486
9990,-0.88,-0.29,0.0,-9.0,12.33,-27.97,486
10010,-0.88,-0.27,-0.04,-10.65,12.2,-22.14,486
10031,-0.94,-0.24,0.02,-16.57,11.55,-22.56,485
10050,-0.94,-0.27,0.03,-19.64,5.58,-24.44,485
10071,-0.89,-0.32,0.04,-18.22,3.33,-24.88,485
10090,-0.87,-0.33,0.03,-10.97,4.14,-24.94,485
10110,-0.9,-0.24,0.03,-10.88,4.92,-24.24,485
10130,-0.91,-0.23,-0.02,-19.98,2.37,-25.25,485
10150,-0.93,-0.27,0.01,-21.55,0.78,-28.38,484
10170,-0.88,-0.28,0.05,-17.38,2.39,-31.53,485
10190,-0.86,-0.31,0.02,-13.23,4.63,-33.04,484
10210,-0.9,-0.37,-0.01,-14.7,5.2,-32.81,484
10230,-0.88,-0.47,0.04,-9.32,6.39,-34.44,484
10250,-0.86,-0.43,0.04,3.88,12.25,-35.45,484
10270,-0.87,-0.37,-0.03,5.4,14.91,-36.67,484
10290,-0.91,-0.43,-0.0,10.24,15.55,-42.27,485
10310,-0.89,-0.41,0.07,36.13,21.69,-54.26,486
10331,-0.98,-0.24,0.09,61.38,29.81,-64.62,487
10350,-1.07,-0.02,-0.08,57.73,29.56,-64.69,488
10371,-0.98,-0.12,-0.05,38.28,29.43,-74.53,488
10390,-1.05,-0.23,0.03,51.64,36.14,-89.11,489
10411,-1.25,-0.16,0.13,70.98,49.14,-103.94,491
10430,-1.29,-0.29,0.21,78.72,53.33,-116.49,494
10450,-1.17,-0.52,0.24,100.04,54.07,-129.56,495
10470,-1.24,-0.54,0.2,105.21,45.27,-127.78,495
10490,-1.05,-0.41,0.36,99.44,40.85,-127.78,496
10510,-0.79,-0.43,0.27,82.37,37.67,-114.62,495
10530,-0.72,-0.54,0.12,39.93,13.59,-94.49,494
10550,-0.77,-0.62,-0.07,-2.59,-11.17,-80.09,494
10570,-0.74,-0.7,-0.07,-16.56,-9.18,-64.38,493
10590,-0.51,-0.88,-0.42,-47.14,-36.15,-54.27,491
10610,-0.2,-1.07,-0.39,-30.13,-14.06,-47.46,491
10630,-0.3,-1.08,-0.16,48.4,13.87,-21.91,491
10650,-0.31,-0.75,0.08,80.56,10.28,37.13,491
10671,-0.39,-0.41,0.06,40.68,-11.93,92.73,490
10690,-0.45,-0.55,0.0,-9.75,-39.57,124.51,490
10711,-0.47,-0.64,0.06,-36.04,-53.22,146.37,490
10730,-0.42,-0.73,0.14,-45.2,-59.55,171.04,490
10750,-0.45,-0.82,0.12,-11.99,-43.29,194.0,491
10770,-0.57,-0.71,0.19,14.51,-22.76,200.9,492
10790,-0.67,-0.49,0.24,-12.74,-33.57,211.93,493
10810,-0.73,-0.46,0.14,-44.5,-42.64,223.22,493
10830,-0.86,-0.58,0.1,-48.96,-34.35,214.81,493
10850,-0.9,-0.59,0.13,-35.28,-29.64,205.7,492
10870,-0.92,-0.39,0.09,-25.83,-26.97,196.81,491
10890,-0.99,-0.24,0.15,-26.85,-22.28,184.57,489
10910,-0.97,-0.22,0.16,-26.1,-18.25,162.66,488
10930,-0.95,-0.29,0.07,-11.7,-5.49,128.6,487
10950,-0.93,-0.26,0.07,7.87,3.64,98.81,486
10971,-0.96,-0.06,0.09,3.26,4.11,74.51,486
10990,-0.96,-0.05,0.07,-11.92,-1.52,40.46,487
11011,-0.91,-0.11,0.1,-24.12,-4.91,10.15,486
11030,-0.88,-0.16,0.06,-34.31,-7.9,-16.7,487
11051,-0.82,-0.31,0.04,-44.42,-11.15,-43.37,487
11070,-0.76,-0.39,0.01,-45.14,-3.0,-64.2,487
11090,-0.93,-0.41,-0.04,-19.61,21.21,-58.64,487
11110,-1.62,-0.06,0.7,37.04,40.39,3.09,488
11130,-1.07,0.22,0.17,20.75,10.89,-34.3,490
11150,-0.92,-0.0,0.05,-33.15,-2.12,-62.33,491
11170,-0.83,-0.38,0.12,-56.25,-3.31,-37.85,490
11190,-0.85,-0.71,-0.03,24.71,35.41,-45.27,489
11210,-0.87,-0.18,0.18,46.92,43.55,-45.53,488
11230,-1.05,-0.04,0.17,21.79,29.85,-44.12,488
11250,-0.88,-0.15,0.02,-0.56,14.83,-35.1,487
11270,-0.77,-0.46,-0.04,20.42,32.6,-41.48,487
11290,-1.02,-0.22,0.01,40.83,30.6,-38.18,488
11311,-0.95,-0.15,0.07,32.43,25.91,-40.93,489
11330,-0.96,-0.18,0.03,29.3,21.52,-41.08,488
11351,-0.89,-0.26,-0.09,23.33,18.86,-37.69,488
11370,-0.9,-0.35,-0.13,17.75,18.1,-30.64,488
11390,-0.89,-0.42,-0.01,19.12,17.09,-28.72,488
11410,-0.89,-0.42,0.11,35.69,20.22,-31.49,488
11430,-0.91,-0.31,0.09,35.78,17.52,-28.81,488
11450,-0.87,-0.35,-0.03,17.67,10.36,-24.01,488
11470,-0.86,-0.45,-0.03,10.77,9.87,-18.65,487
11490,-0.89,-0.35,0.02,12.77,9.43,-15.82,488
11510,-0.87,-0.28,-0.0,6.42,7.64,-14.23,488
11530,-0.93,-0.27,0.01,16.71,16.36,-19.17,488
11550,-1.01,-0.01,-0.04,10.8,9.01,-18.46,488
11570,-0.95,-0.02,-0.03,-14.45,-0.38,-19.89,488
11590,-0.9,-0.23,0.04,-14.67,1.88,-27.42,489
11611,-0.95,-0.21,-0.01,-2.71,4.71,-31.07,489
11630,-0.93,-0.27,-0.05,-16.73,-4.67,-27.62,489
11651,-0.85,-0.49,-0.02,-26.25,-6.41,-25.83,488
11670,-0.84,-0.51,0.01,-16.56,-2.3,-25.25,488
11691,-0.85,-0.34,0.04,-6.67,3.9,-25.6,488
11710,-0.91,-0.31,0.04,1.85,5.17,-31.56,489
11730,-0.97,-0.22,0.01,8.1,0.52,-34.49,489
11750,-0.93,-0.23,-0.05,6.48,1.23,-41.95,489
11770,-0.91,-0.22,-0.06,15.79,4.16,-46.72,489
11790,-0.94,-0.13,-0.06,20.85,5.69,-51.65,489
11810,-0.93,-0.11,-0.13,6.14,2.36,-51.6,490
11830,-0.91,-0.19,-0.07,3.52,3.53,-61.39,490
11850,-0.98,-0.11,-0.0,13.09,8.91,-71.4,491
11870,-1.07,-0.04,-0.05,19.15,13.52,-85.69,491
11890,-1.39,-0.16,0.15,10.07,13.27,-100.35,493
11910,-1.3,-0.39,0.3,12.6,7.78,-116.87,495
11930,-1.08,-0.47,0.33,38.66,15.78,-129.74,496
11951,-1.37,-0.32,0.38,76.01,34.6,-139.56,497
11970,-1.29,-0.35,0.35,51.17,9.61,-135.34,499
11991,-0.84,-0.42,0.38,30.33,-5.02,-114.87,498
12010,-0.65,-0.65,0.11,-4.36,-28.64,-86.59,496
12030,-0.44,-0.67,-0.44,-60.13,-38.41,-67.17,494
12050,-0.41,-1.02,-0.47,-66.07,-28.41,-61.94,492
12070,-0.44,-1.34,-0.11,31.72,0.68,-27.97,492
12090,-0.39,-1.06,-0.03,110.13,18.75,16.32,491
12110,-0.47,-0.43,0.02,96.91,11.98,58.73,491
12130,-0.44,-0.19,-0.01,0.34,-30.31,103.68,490
12150,-0.42,-0.55,-0.03,-70.05,-59.48,137.79,490
12170,-0.46,-0.89,0.01,-57.69,-51.11,158.06,490
12190,-0.49,-0.93,0.05,-8.39,-35.52,169.25,492
12210,-0.6,-0.67,0.13,4.2,-32.42,180.43,492
12230,-0.67,-0.46,0.13,-23.49,-37.18,191.21,493
12251,-0.73,-0.58,0.1,-38.45,-33.69,193.3,493
12270,-0.77,-0.64,0.06,-30.38,-28.65,188.12,493
12291,-0.82,-0.53,0.07,-20.82,-25.15,182.43,492
12310,-0.82,-0.48,0.11,-18.5,-21.18,175.33,490
12331,-0.78,-0.42,0.15,-11.18,-10.04,169.68,489
12350,-0.81,-0.37,0.1,-10.48,-13.18,152.38,488
12370,-0.94,-0.39,0.12,-4.3,0.89,138.61,487
12390,-0.94,-0.24,0.14,-6.45,-4.56,123.48,486
12410,-0.95,-0.1,0.04,-10.19,-3.89,92.77,485
12430,-0.97,0.01,0.14,-21.26,-4.86,63.41,485
12450,-0.93,-0.03,0.04,-31.93,-8.62,24.51,486
12470,-0.93,-0.07,0.06,-31.69,1.94,-12.59,487
12490,-0.9,-0.15,0.1,-43.08,-4.64,-37.27,487
12510,-0.79,-0.38,-0.01,-48.02,-5.69,-59.78,488
12530,-0.73,-0.44,-0.01,-41.55,8.34,-73.43,488
12550,-1.27,0.06,0.43,2.57,62.4,-38.64,488
12570,-1.81,0.39,0.55,-37.15,-40.3,10.14,490
12591,-0.78,-0.06,0.01,-64.99,-26.35,-58.11,490
12610,-0.75,-0.46,-0.0,-75.38,-3.2,-71.1,489
12631,-0.82,-0.39,-0.13,-74.65,-6.65,-18.24,488
12650,-0.73,-0.63,-0.11,-12.76,34.56,-38.59,487
12670,-0.86,-0.38,0.36,21.09,50.11,-42.27,487
12690,-1.08,-0.14,0.31,7.67,26.98,-34.76,488
12710,-0.88,-0.18,0.07,-23.38,11.61,-34.11,486
12730,-0.8,-0.48,-0.1,-12.1,22.97,-33.04,486
12750,-1.0,-0.37,-0.06,13.98,26.92,-30.7,486
12770,-0.94,-0.16,-0.02,10.4,23.01,-29.25,486
12790,-0.95,-0.17,0.0,-3.8,15.7,-28.64,485
12810,-0.92,-0.26,0.0,-8.42,13.88,-30.17,485
12830,-0.92,-0.27,-0.01,-3.87,15.07,-30.81,486
12850,-0.94,-0.19,-0.02,-3.95,13.67,-29.53,486
12870,-0.92,-0.22,-0.03,-9.9,11.23,-28.65,485
12891,-0.9,-0.31,0.02,-12.12,9.29,-28.94,485
12910,-0.9,-0.34,0.05,-8.54,9.23,-30.69,486
12931,-0.89,-0.29,0.03,-2.56,9.96,-29.83,486
12950,-0.91,-0.25,0.03,-3.46,7.79,-29.82,485
12971,-0.91,-0.31,-0.01,-3.86,7.07,-31.22,485
12990,-0.89,-0.38,0.01,3.17,8.34,-33.62,485
13010,-0.9,-0.43,0.07,21.37,9.81,-39.92,485
13030,-0.86,-0.39,0.08,36.5,16.71,-43.78,486
13050,-0.84,-0.32,-0.13,29.73,18.94,-34.35,486
13070,-0.91,-0.35,-0.01,20.39,18.97,-36.4,485
13090,-0.9,-0.32,0.05,14.36,16.77,-37.43,485
13110,-0.9,-0.36,0.04,17.9,19.21,-41.02,486
13130,-0.9,-0.35,0.05,31.88,22.92,-50.46,487
13150,-0.95,-0.18,-0.0,48.16,27.36,-58.81,488
13170,-0.99,-0.09,-0.14,27.46,22.65,-53.86,489
13190,-0.93,-0.31,-0.05,21.4,23.14,-62.64,489
13210,-0.95,-0.38,0.06,34.88,26.83,-71.23,490
13231,-0.96,-0.33,0.1,32.33,23.04,-76.75,491
13250,-0.87,-0.42,0.11,21.32,17.46,-79.74,492
13271,-0.92,-0.5,0.14,25.79,21.27,-84.18,493
13290,-1.08,-0.5,0.07,47.64,28.3,-92.21,494
13310,-1.31,-0.51,0.09,66.17,31.73,-101.91,495
13330,-1.48,-0.37,0.23,88.27,35.67,-114.81,497
13350,-1.38,-0.28,0.29,106.68,36.45,-126.09,498
13370,-1.09,-0.22,0.3,102.88,30.31,-124.09,498
13390,-0.78,-0.34,0.09,47.44,-7.02,-94.56,496
13410,-0.54,-0.63,-0.15,-22.33,-40.09,-79.34,495
13430,-0.71,-0.77,-0.14,-42.41,-39.2,-59.45,494
13450,-0.68,-0.91,-0.31,-69.26,-52.76,-46.81,493
13470,-0.21,-1.12,-0.47,-78.13,-56.67,-41.45,492
13490,-0.16,-1.08,-0.24,-1.55,-5.0,-28.79,492
13510,-0.23,-1.03,0.04,74.95,0.91,21.06,491
13531,-0.25,-0.58,0.12,75.55,3.53,81.12,491
13550,-0.34,-0.48,0.04,17.01,-37.44,123.21,490
13571,-0.42,-0.61,0.06,-28.86,-50.35,142.17,489
13590,-0.42,-0.71,0.15,-46.31,-60.01,163.33,490
13611,-0.35,-0.82,0.19,-38.24,-54.47,190.69,490
13630,-0.45,-0.89,0.13,15.3,-18.6,199.16,491
13650,-0.67,-0.62,0.19,12.65,-22.15,202.86,492
13670,-0.68,-0.45,0.17,-23.21,-38.73,213.21,492
13690,-0.79,-0.56,0.08,-37.08,-34.53,213.83,492
13710,-0.92,-0.62,0.1,-24.88,-28.33,198.99,492
13730,-0.92,-0.47,0.15,-13.23,-25.35,190.34,490
13750,-0.88,-0.25,0.17,-13.98,-22.73,180.89,489
13770,-0.95,-0.32,0.15,-19.38,-16.16,160.09,488
13790,-0.95,-0.4,0.18,-4.73,-6.56,139.31,487
13810,-0.89,-0.25,0.09,13.72,-0.3,110.96,486
13830,-0.91,-0.1,0.02,20.83,8.71,78.15,486
13850,-0.98,0.02,0.05,10.89,8.92,52.02,486
13871,-0.96,0.04,0.02,-10.57,1.76,15.67,487
13890,-0.89,-0.11,0.05,-16.38,7.26,-16.17,487
13911,-0.87,-0.22,0.04,-19.67,5.65,-40.43,487
13930,-0.84,-0.18,-0.01,-29.11,8.94,-61.86,487
13950,-0.97,-0.22,0.17,-43.73,15.06,-61.75,486
13970,-1.6,0.11,0.76,-26.67,40.97,-9.82,487
13990,-1.09,0.19,0.2,-75.14,-51.35,-22.7,489
14010,-0.73,-0.41,-0.04,-72.21,-13.03,-70.65,489
14030,-0.85,-0.52,0.12,-64.09,-0.89,-41.34,489
14050,-0.83,-0.37,-0.15,-29.03,21.4,-26.09,489
14070,-0.8,-0.31,0.21,-0.09,37.61,-37.51,488
14090,-0.99,-0.14,0.34,-2.82,26.66,-36.79,489
14110,-0.99,-0.13,0.16,-9.83,17.65,-42.67,489
14130,-0.83,-0.16,-0.02,-10.41,20.65,-38.58,488
14150,-0.88,-0.33,-0.11,-0.94,30.83,-40.67,487
14171,-0.95,-0.23,-0.04,13.37,33.84,-40.82,487
14190,-0.96,-0.11,-0.06,-4.5,21.4,-36.43,487
14211,-0.91,-0.26,0.03,-22.5,13.73,-37.56,486
14230,-0.88,-0.42,0.06,-16.19,14.34,-37.22,487
14251,-0.89,-0.39,0.01,-6.83,15.43,-34.29,487
14270,-0.91,-0.34,0.02,-2.38,13.65,-33.56,487
14290,-0.88,-0.35,-0.01,-3.99,13.38,-27.8,487
14310,-0.84,-0.42,0.02,-7.14,12.68,-25.45,486
14330,-0.89,-0.48,0.05,-5.37,10.69,-24.41,486
14350,-0.88,-0.42,0.08,0.3,8.92,-23.01,486
14370,-0.89,-0.32,0.04,3.32,9.2,-21.95,486
14390,-0.93,-0.24,0.01,5.18,9.09,-24.67,486
14410,-0.91,-0.2,-0.02,9.53,11.76,-28.26,486
14430,-0.92,-0.19,-0.02,11.44,14.11,-31.77,486
14450,-0.94,-0.17,-0.01,14.65,14.11,-36.61,487
14470,-0.93,-0.27,0.0,13.27,13.67,-40.27,487
14490,-0.89,-0.4,0.04,21.18,15.3,-46.36,487
14511,-0.87,-0.27,0.01,37.27,24.82,-49.1,487
14530,-0.87,-0.2,-0.08,23.14,21.11,-46.01,487
14551,-0.9,-0.3,-0.03,11.95,18.4,-51.56,486
14570,-0.93,-0.35,-0.02,10.71,18.34,-55.19,487
14590,-0.95,-0.34,0.06,20.71,23.35,-63.1,488
14610,-0.97,-0.36,0.1,31.85,27.5,-71.3,490
14630,-0.94,-0.39,0.11,39.81,27.47,-77.92,492
14650,-0.92,-0.33,0.07,36.16,26.23,-78.5,492
14670,-0.98,-0.36,0.07,40.6,33.14,-87.78,493
14690,-1.12,-0.43,0.04,51.04,35.36,-96.94,494
14710,-1.31,-0.45,0.14,65.76,39.2,-105.72,495
14730,-1.49,-0.45,0.3,89.81,42.25,-118.94,497
14750,-1.37,-0.38,0.33,126.28,52.31,-135.49,498
14770,-1.04,-0.31,0.31,124.74,45.44,-128.11,498
14790,-0.67,-0.47,0.08,56.34,5.47,-98.56,497
14811,-0.56,-0.64,-0.26,-16.12,-20.62,-75.42,495
14830,-0.88,-0.73,-0.19,-41.09,-28.82,-49.95,494
14851,-0.66,-0.9,-0.28,-80.51,-64.22,-35.62,493
14870,-0.06,-1.16,-0.52,-93.43,-52.21,-39.92,492
14891,-0.07,-1.15,-0.17,12.75,7.58,-15.94,491
14910,-0.15,-1.03,0.04,94.08,-4.51,34.0,490
14930,-0.26,-0.51,0.13,87.37,0.31,90.98,490
14950,-0.34,-0.43,0.07,21.64,-37.99,131.7,489
14970,-0.39,-0.63,0.11,-31.4,-59.11,148.05,489
14990,-0.35,-0.67,0.15,-52.39,-66.86,168.64,489
15010,-0.4,-0.76,0.17,-55.35,-65.48,196.66,490
15030,-0.51,-0.85,0.14,-7.05,-36.12,206.02,491
15050,-0.67,-0.67,0.2,-0.83,-33.11,207.21,492
15070,-0.71,-0.45,0.19,-32.96,-51.23,214.75,492
15090,-0.86,-0.44,0.1,-57.09,-56.09,213.19,492
15110,-0.97,-0.56,0.1,-47.25,-44.5,193.68,491
15130,-1.0,-0.49,0.13,-25.09,-36.64,175.21,490
15151,-0.95,-0.36,0.2,-15.78,-25.96,153.35,489
15170,-0.86,-0.33,0.13,-7.95,-17.69,131.42,488
15191,-0.84,-0.38,0.03,14.16,-0.93,107.54,487
15210,-0.95,-0.23,0.08,29.49,10.1,84.75,487
15230,-0.94,-0.06,0.03,22.13,7.41,53.67,486
15250,-0.91,-0.02,0.01,-0.16,7.14,24.17,486
15270,-0.88,-0.14,0.04,-25.92,-5.34,-4.73,486
15290,-0.76,-0.21,-0.01,-39.35,-2.77,-30.7,485
15310,-0.72,-0.26,-0.01,-52.41,3.69,-50.88,485
15330,-0.81,-0.27,0.1,-50.65,12.69,-59.28,485
15350,-1.88,0.46,0.97,-2.25,100.27,-4.88,488
15370,-1.31,0.53,0.21,-87.11,-88.65,-20.29,491
15390,-0.46,-0.34,-0.18,-91.49,-24.68,-76.59,491
15410,-0.72,-0.46,0.04,-62.31,10.86,-46.93,490
15430,-1.03,-0.55,-0.39,-28.31,20.23,-23.3,489
15451,-0.79,-0.52,0.02,20.94,41.7,-45.92,486
15470,-0.9,-0.09,0.36,-5.11,36.17,-39.23,486
15491,-1.05,-0.17,0.34,-42.77,10.02,-32.96,485
15510,-0.7,-0.5,0.18,-52.76,3.96,-26.09,484
15531,-0.8,-0.73,0.07,-14.48,24.11,-26.18,484
15550,-0.96,-0.38,0.03,7.24,25.14,-20.91,484
15570,-0.92,-0.19,-0.01,-16.96,13.91,-16.12,485
15590,-0.9,-0.45,0.09,-21.09,12.02,-21.16,485
15610,-0.88,-0.43,0.05,4.74,19.3,-19.51,485
15630,-0.96,-0.16,-0.07,9.0,19.4,-17.01,485
15650,-0.96,-0.21,-0.08,-0.63,16.43,-19.6,485
15670,-0.93,-0.24,-0.01,0.13,15.69,-21.23,484
15690,-0.92,-0.24,0.03,4.98,17.15,-24.94,484
15710,-0.93,-0.29,0.07,11.85,17.69,-26.11,485
15730,-0.89,-0.27,0.02,14.82,16.97,-28.2,485
15750,-0.93,-0.34,0.07,23.93,15.78,-35.11,485
15770,-0.9,-0.38,0.05,39.21,19.81,-38.88,486
15791,-0.83,-0.39,-0.03,45.76,26.63,-39.14,486
15810,-0.93,-0.29,0.04,53.96,29.38,-40.06,487
15831,-0.92,-0.26,0.05,44.33,24.69,-39.36,487
15850,-0.89,-0.29,-0.01,35.58,20.89,-39.63,487
15870,-0.92,-0.29,-0.03,40.07,24.25,-42.64,487
15890,-0.99,-0.19,0.02,48.17,22.48,-46.98,488
15910,-0.97,-0.06,-0.06,27.53,16.07,-43.94,488
15930,-0.91,-0.2,-0.06,7.88,13.32,-49.3,489
15950,-0.95,-0.21,-0.02,12.62,16.1,-55.77,489
15970,-1.0,-0.15,0.03,9.85,11.81,-63.02,490
15990,-0.99,-0.31,0.13,7.17,10.52,-74.53,492
16010,-0.98,-0.35,0.07,16.45,11.76,-80.23,493
16030,-1.11,-0.34,0.07,25.01,15.09,-89.33,494
16050,-1.4,-0.37,0.1,32.28,15.26,-101.25,495
16070,-1.45,-0.4,0.29,48.27,17.15,-115.77,497
16091,-1.55,-0.29,0.48,98.79,37.94,-131.11,499
16110,-1.47,-0.05,0.47,101.56,28.16,-127.82,499
16131,-0.96,-0.23,0.26,30.92,-33.89,-91.72,497
16150,-0.25,-0.57,-0.23,-84.77,-55.67,-68.56,493
16171,0.06,-0.97,-0.93,-185.58,-79.89,-47.46,489
16190,-0.2,-1.54,-0.25,-39.78,-29.18,-33.56,489
16210,-0.07,-1.67,-0.08,89.23,-23.31,26.22,490
16230,-0.16,-0.65,-0.17,135.29,-5.0,66.51,490
16250,-0.19,-0.02,-0.11,-5.93,-53.11,123.59,489
16270,-0.06,-0.53,-0.02,-125.83,-90.16,165.8,488
