Time,AccX,AccY,AccZ,GyroX,GyroY,GyroZ,Capacitance

7269,-0.91,-0.25,0.06,-7.62,-0.19,1.02,467

7289,-0.94,-0.21,0.06,-10.52,-0.63,-3.24,465

7309,-0.92,-0.25,0.08,-12.2,-1.93,-2.77,465

7329,-0.91,-0.28,0.06,-10.29,-1.36,-1.39,465

7349,-0.9,-0.3,0.05,-5.88,1.63,10.44,465

7369,-0.91,-0.27,0.07,-0.99,2.09,-1.83,465

7389,-0.92,-0.2,0.09,-0.88,1.94,3.09,465

7409,-0.95,-0.21,0.1,-6.24,-1.01,-10.04,465

7430,-0.91,-0.24,0.07,-11.66,-1.62,1.26,465

7450,-0.9,-0.29,0.04,-11.36,-1.47,-0.0,465

7471,-0.91,-0.31,0.04,-9.3,-0.46,-3.18,465

7490,-0.91,-0.33,0.05,-5.1,0.55,-6.99,465

7511,-0.9,-0.28,0.06,-1.16,0.15,-5.62,466

7530,-0.92,-0.24,0.08,-1.69,1.13,-1.6,466

7550,-0.94,-0.21,0.07,-4.49,0.12,-11.03,466

7570,-0.92,-0.28,0.08,-6.06,-1.07,-5.98,466

7590,-0.9,-0.31,0.07,-2.82,1.05,-4.1,465

7610,-0.91,-0.28,0.05,-4.04,-0.29,-4.35,466

7630,-0.92,-0.27,0.05,-4.81,-1.29,2.68,466

7650,-0.9,-0.29,0.07,-2.75,-1.67,-5.03,466

7670,-0.9,-0.32,0.06,-0.44,-0.81,-11.32,466

7690,-0.91,-0.31,0.05,-0.15,-0.98,-1.14,466

7710,-0.89,-0.29,0.03,1.91,-0.13,-2.33,466

7730,-0.93,-0.25,0.05,4.75,1.04,0.55,466

7750,-0.93,-0.21,0.09,4.92,0.82,-5.83,466

7771,-0.93,-0.22,0.09,6.54,2.96,-4.53,466

7790,-0.95,-0.22,0.09,8.6,4.38,-11.03,466

7811,-0.95,-0.18,0.09,8.58,5.13,-13.15,467

7830,-0.96,-0.15,0.06,8.34,6.9,-14.41,467

7851,-0.96,-0.17,0.06,15.47,10.88,-25.09,467

7870,-0.96,-0.32,0.1,28.35,18.38,-32.87,468

7890,-0.96,-0.28,0.09,44.35,23.48,-37.28,468

7910,-1.02,-0.15,0.19,57.7,27.34,-46.09,470

7930,-1.0,0.0,0.21,57.9,28.39,-44.12,471

7950,-1.0,0.17,0.21,24.67,23.1,-42.25,474

7970,-0.92,-0.1,0.19,-14.96,9.72,-47.34,475

7990,-0.91,-0.4,0.17,-31.72,0.38,-48.19,476

8010,-0.81,-0.6,0.04,-32.41,1.14,-40.53,476

8030,-0.9,-0.58,0.1,-19.86,-9.12,-13.83,476

8050,-0.97,-0.21,0.16,-24.21,-33.13,12.87,476

8070,-1.02,-0.11,0.12,-43.1,-44.51,33.14,476

8090,-0.97,-0.29,0.15,-41.16,-51.82,48.44,477

8111,-0.91,-0.45,0.19,-8.4,-40.64,66.08,478

8130,-0.92,-0.38,0.13,23.01,-32.46,77.37,478

8151,-0.97,-0.11,0.13,21.62,-38.87,83.61,477

8170,-0.87,-0.07,0.13,1.56,-45.29,80.04,476

8190,-0.91,-0.29,0.13,-3.27,-39.84,77.4,476

8210,-0.84,-0.38,0.15,9.53,-38.31,78.46,476

8230,-0.8,-0.34,0.11,26.4,-26.19,68.71,476

8250,-0.87,-0.2,0.09,31.97,-21.09,75.07,475

8270,-0.8,-0.17,0.1,28.43,-19.71,69.56,475

8290,-0.81,-0.31,0.1,33.22,-9.73,49.98,475

8310,-0.88,-0.31,0.12,41.79,-1.96,50.6,476

8330,-0.83,-0.21,0.12,42.54,3.05,37.18,476

8350,-0.82,-0.16,0.13,38.35,7.65,23.85,475

8370,-0.89,-0.02,0.09,25.1,7.74,22.81,475

8390,-0.91,-0.04,0.14,3.1,4.73,-2.53,475

8411,-0.85,-0.14,0.13,-11.45,5.65,-22.37,475

8430,-0.89,-0.06,0.08,-20.9,9.51,-24.15,476

8451,-0.91,-0.05,0.07,-43.16,2.62,-38.68,475

8470,-0.88,-0.19,0.13,-57.8,12.27,-37.27,475

8491,-1.29,-0.2,0.6,-48.3,18.94,-22.16,476

8510,-1.32,-0.04,0.55,-60.29,-15.79,-7.91,477

8530,-0.79,-0.14,0.08,-66.98,-0.35,-44.25,476

8550,-0.9,-0.41,-0.09,-56.79,13.48,-55.59,475

8570,-0.82,-0.5,-0.22,-17.2,23.16,-20.6,474

8590,-0.73,-0.45,0.04,26.73,46.01,-35.41,474

8610,-1.04,-0.23,0.33,17.53,36.71,-39.24,475

8630,-0.97,0.06,0.21,-24.52,17.65,-23.73,475

8650,-0.78,-0.24,0.01,-44.4,23.52,-27.05,473

8670,-0.99,-0.45,-0.09,-22.33,30.97,-26.78,472

8690,-0.96,-0.26,-0.02,-10.04,25.34,-25.06,472

8710,-0.94,-0.18,0.01,-15.88,25.36,-21.54,473

8730,-0.93,-0.23,0.01,-23.81,21.42,-21.11,473

8751,-0.89,-0.31,-0.02,-18.43,22.39,-21.7,473

8770,-0.94,-0.24,-0.03,-15.91,22.06,-31.35,472

8791,-0.92,-0.2,-0.04,-16.93,20.73,-22.15,472

8810,-0.9,-0.27,0.01,-17.19,19.97,-31.05,473

8830,-0.88,-0.28,0.02,-15.48,21.2,-39.87,473

8850,-0.89,-0.27,0.03,-15.25,21.19,-26.42,473

8870,-0.91,-0.24,0.0,-14.07,20.96,-26.37,473

8890,-0.89,-0.26,-0.05,-14.4,20.27,-32.71,473

8910,-0.86,-0.35,-0.04,-8.21,21.77,-36.2,474

8930,-0.85,-0.32,0.02,-1.33,25.81,-40.41,474

8950,-0.88,-0.3,0.02,-4.33,25.28,-27.91,475

8970,-0.83,-0.36,-0.07,-5.4,25.65,-42.39,475

8990,-0.93,-0.37,-0.04,-3.68,24.16,-50.72,474

9010,-0.85,-0.39,-0.07,-1.91,22.96,-39.87,474

9030,-0.8,-0.52,-0.12,2.75,26.23,-47.86,475

9051,-0.85,-0.54,-0.06,9.02,28.06,-45.5,475

9070,-0.83,-0.49,0.01,14.11,26.41,-43.14,475

9091,-0.79,-0.42,0.07,22.38,27.54,-40.62,476

9110,-0.86,-0.46,0.16,44.84,45.26,-67.49,477

9131,-1.18,-0.33,-0.0,78.08,65.62,-69.3,479

9150,-1.36,-0.37,0.15,113.39,84.24,-90.34,480

9170,-1.77,-0.29,0.35,152.52,113.0,-112.36,484

9190,-1.89,-0.05,0.5,168.95,86.76,-137.39,487

9210,-1.29,0.04,0.33,90.46,59.42,-153.92,488

9230,-1.0,-0.19,-0.02,13.59,58.49,-114.39,487

9250,-0.87,-0.23,-0.3,-78.62,-4.49,-87.82,486

9270,-0.5,-0.57,-0.38,-118.23,-8.32,-75.16,485

9290,-0.45,-1.24,-0.21,-77.19,7.25,-82.4,486

9310,-0.44,-1.2,-0.09,-5.63,-8.22,1.75,487

9330,-0.13,-0.72,-0.13,53.53,-21.64,91.88,487

9350,-0.14,-0.58,-0.23,54.69,-36.16,135.9,486

9370,-0.23,-0.67,-0.24,55.82,-44.17,182.76,485

9391,-0.45,-0.73,-0.19,52.52,-68.42,220.28,483

9410,-0.57,-0.55,-0.13,23.02,-99.42,248.34,482

9431,-0.73,-0.5,-0.04,-7.31,-119.84,263.73,481

9450,-0.94,-0.49,0.04,-43.14,-129.87,254.42,478

9470,-0.93,-0.6,0.1,-73.17,-156.6,233.94,475

9490,-0.88,-0.55,0.24,-63.37,-136.84,210.13,473

9510,-0.81,-0.48,0.37,-48.81,-118.02,198.99,472

9530,-0.69,-0.5,0.04,-17.01,-74.77,141.67,471

9550,-1.03,-0.28,0.19,20.98,-48.64,102.84,470

9570,-0.87,0.21,0.04,9.82,-34.84,78.45,470

9590,-0.98,0.19,0.08,-8.23,-12.4,1.8,471

9610,-0.76,-0.12,0.01,-21.48,-4.38,-40.89,471

9630,-0.59,-0.47,-0.09,-21.36,18.12,-91.88,471

9650,-0.58,-0.55,-0.27,-8.18,63.1,-100.8,471

9670,-1.63,-0.32,0.35,42.77,76.16,-24.99,470

9691,-1.44,0.13,0.26,-4.84,-3.41,-2.23,473

9710,-0.81,-0.05,-0.01,-68.87,23.86,-90.98,472

9731,-0.75,-0.52,0.08,-101.04,10.04,-70.16,472

9750,-0.57,-0.79,-0.09,-44.93,27.29,-21.47,472

9771,-0.91,-0.56,0.04,9.47,45.46,-35.52,474

9790,-1.02,-0.13,0.06,-1.74,32.87,-25.25,473

9810,-0.94,-0.17,-0.04,-32.99,24.06,-20.56,472

9830,-0.78,-0.53,-0.06,-30.61,28.67,-30.63,472

9850,-0.95,-0.49,0.02,-3.43,32.3,-30.09,473

9870,-0.95,-0.24,-0.03,3.71,30.0,-19.58,473

9890,-0.9,-0.22,-0.03,-8.1,26.96,-31.26,472

9910,-0.94,-0.27,0.04,-16.94,24.0,-32.45,472

9930,-0.86,-0.28,0.07,-17.46,24.29,-29.28,473

9950,-0.87,-0.34,0.02,-6.91,28.75,-27.04,473

9970,-0.93,-0.25,-0.0,5.16,32.01,-20.66,472

9990,-0.96,-0.12,-0.02,5.59,32.73,-35.83,472

10010,-0.91,-0.12,-0.04,-4.78,27.28,-25.61,472

10031,-0.88,-0.2,0.01,-13.97,26.5,-40.06,472

10050,-0.88,-0.26,0.06,-12.46,28.12,-42.68,473

10071,-0.86,-0.35,0.02,-4.53,31.87,-49.71,473

10090,-0.84,-0.3,-0.03,-6.93,28.61,-48.79,473

10110,-0.88,-0.32,-0.12,-8.58,30.42,-51.96,473

10130,-0.94,-0.38,-0.04,-9.95,24.64,-60.5,474

10150,-0.79,-0.51,-0.07,1.54,29.89,-67.5,475

10170,-0.81,-0.54,-0.1,15.06,38.03,-55.8,476

10190,-0.88,-0.53,-0.11,23.94,42.71,-72.93,476

10210,-0.86,-0.54,-0.04,27.12,44.91,-59.5,477

10230,-0.87,-0.59,0.1,40.54,55.0,-64.05,479

10250,-1.12,-0.49,0.21,69.09,72.16,-76.72,481

10270,-1.44,-0.26,0.16,81.85,74.39,-78.67,483

10290,-1.55,-0.17,0.34,80.66,63.28,-117.18,485

10310,-1.65,-0.36,0.5,89.19,79.52,-136.62,488

10331,-1.67,-0.39,0.36,124.19,78.12,-137.4,490

10350,-1.28,-0.09,0.12,76.78,40.9,-106.57,490

10371,-0.61,-0.3,-0.41,-32.24,8.7,-94.61,487

10390,-0.34,-0.52,-0.53,-110.2,-10.37,-88.09,485

10411,-0.48,-0.94,-0.51,-97.46,0.1,-65.34,486

10430,-0.39,-1.02,-0.42,-31.62,-29.76,-6.24,486

10450,-0.14,-0.96,-0.25,31.64,-28.23,32.24,486

10470,-0.32,-0.69,-0.01,52.41,-30.11,93.6,487

10490,-0.14,-0.74,-0.18,57.04,-68.69,135.53,486

10510,-0.14,-0.65,-0.15,54.7,-56.23,177.11,485

10530,-0.39,-0.75,-0.16,47.9,-71.71,202.61,484

10550,-0.41,-0.69,-0.11,29.22,-87.62,233.56,483

10570,-0.49,-0.66,-0.01,6.31,-97.38,241.25,482

10590,-0.61,-0.6,0.1,-5.08,-102.98,249.96,480

10610,-0.65,-0.62,0.02,-36.07,-114.06,242.68,478

10630,-0.9,-0.53,0.07,-37.57,-108.31,230.95,475

10650,-1.17,-0.5,0.12,-19.56,-117.3,231.43,472

10671,-1.06,-0.42,0.15,-1.36,-99.96,179.4,470

10690,-0.94,-0.13,0.27,13.44,-65.59,152.03,469

10711,-0.83,-0.0,0.05,30.64,-23.3,95.83,468

10730,-0.93,0.17,0.08,49.38,1.0,56.1,469

10750,-0.91,0.27,0.15,30.63,11.36,-1.66,469

10770,-0.85,0.23,0.02,-7.33,16.21,-27.84,469

10790,-0.84,0.08,-0.05,-58.18,13.71,-64.24,469

10810,-0.79,-0.26,-0.1,-94.35,16.06,-97.36,469

10830,-0.95,-0.61,0.27,-68.0,33.4,-66.44,470

10850,-1.64,-0.34,0.6,-41.81,12.58,0.05,472

10870,-0.86,-0.31,0.15,-51.4,9.69,-69.98,475

10890,-0.73,-0.44,-0.04,-64.14,27.92,-64.94,472

10910,-0.72,-0.43,-0.03,-55.69,25.34,-31.77,471

10930,-0.88,-0.53,-0.08,-16.26,37.19,-37.37,471

10950,-0.96,-0.39,-0.0,-15.57,29.72,-32.0,474

10971,-0.88,-0.46,0.06,-25.25,29.52,-33.35,472

10990,-0.82,-0.57,0.03,-11.39,31.36,-29.85,472

11011,-0.88,-0.45,-0.08,8.95,34.64,-28.55,472

11030,-0.93,-0.29,-0.05,16.08,33.87,-27.01,472

11051,-0.98,-0.15,-0.02,12.81,32.07,-22.15,472

11070,-0.95,-0.09,-0.02,0.61,29.11,-29.8,471

11090,-0.91,-0.13,0.04,-5.17,29.26,-28.87,471

11110,-0.97,-0.13,0.05,0.14,32.18,-31.91,471

11130,-0.95,-0.04,0.02,-0.17,33.91,-40.7,471

11150,-0.91,-0.08,-0.01,-0.67,35.63,-40.22,470

11170,-0.98,-0.13,-0.02,-4.85,33.07,-48.33,470

11190,-0.93,-0.2,-0.05,-22.09,21.1,-52.54,470

11210,-0.83,-0.29,-0.05,-29.08,20.39,-47.55,471

11230,-0.86,-0.35,0.0,-22.38,23.17,-50.52,471

11250,-0.85,-0.39,0.02,-8.15,29.72,-50.25,472

11270,-0.87,-0.32,-0.0,-4.94,25.25,-48.54,472

11290,-0.88,-0.26,-0.02,-8.17,28.82,-51.29,473

11311,-0.88,-0.33,-0.05,-5.07,33.52,-59.75,473

11330,-0.83,-0.36,-0.04,0.41,37.37,-71.32,474

11351,-0.86,-0.41,-0.01,5.12,43.02,-74.68,475

11370,-0.92,-0.41,0.01,12.34,51.45,-69.12,477

11390,-1.01,-0.31,-0.01,25.74,64.13,-77.66,479

11410,-1.13,-0.32,0.08,30.58,60.23,-99.73,481

11430,-1.22,-0.36,0.06,22.61,60.33,-101.67,483

11450,-1.62,-0.46,0.25,30.51,69.89,-100.84,486

11470,-1.81,-0.48,0.39,70.63,78.62,-132.15,488

11490,-1.61,-0.52,0.5,98.87,70.68,-132.89,490

11510,-0.98,-0.51,0.02,73.45,57.46,-137.76,491

11530,-0.49,-0.54,-0.39,1.7,28.18,-104.36,488

11550,-0.22,-0.53,-0.52,-58.32,-1.16,-74.18,486

11570,-0.25,-0.87,-0.43,-59.31,1.86,-53.24,486

11590,-0.46,-0.94,-0.28,-14.33,-12.19,-0.97,486

11611,-0.34,-0.76,-0.02,20.83,-44.05,40.78,487

11630,-0.33,-0.65,-0.08,22.34,-71.24,108.27,487

11651,-0.17,-0.68,-0.21,26.15,-81.93,152.1,486

11670,-0.33,-0.73,-0.15,29.24,-80.26,194.95,485

11691,-0.4,-0.83,-0.19,37.01,-104.54,203.85,484

11710,-0.39,-0.81,-0.15,38.41,-115.42,227.82,483

11730,-0.58,-0.63,0.01,22.08,-120.95,258.06,482

11750,-0.69,-0.55,0.09,-10.46,-141.13,264.26,479

11770,-0.72,-0.53,0.12,-55.34,-135.18,254.46,476

11790,-1.03,-0.52,0.23,-63.68,-131.91,243.94,473

11810,-0.96,-0.47,0.11,-28.84,-117.01,211.9,471

11830,-0.99,-0.49,0.06,18.19,-76.74,164.17,469

11850,-0.84,0.04,0.15,47.3,-36.25,123.31,468

11870,-0.93,0.46,0.11,43.28,-5.01,69.13,469

11890,-0.81,0.41,0.06,21.93,3.69,-31.24,469

11910,-0.68,0.16,-0.03,-21.08,17.31,-84.63,469

11930,-0.66,-0.28,-0.14,-63.69,25.8,-128.13,469

11951,-0.71,-0.76,0.16,-28.85,59.25,-116.15,468

11970,-1.94,-0.47,0.61,18.12,44.29,42.64,470

11991,-1.13,0.28,-0.04,-23.98,15.58,-66.71,475

12010,-0.83,-0.36,-0.04,-99.02,28.21,-99.83,472

12030,-0.44,-1.0,-0.09,-55.4,27.84,-57.67,471

12050,-0.69,-0.74,-0.06,38.55,65.74,-36.39,472

12070,-1.09,-0.16,0.12,33.36,43.43,-28.03,477

12090,-0.95,-0.15,0.0,-0.18,43.78,-35.12,474

12110,-0.9,-0.36,-0.17,-11.36,39.48,-37.21,473

12130,-0.81,-0.55,-0.15,14.22,49.57,-37.13,474

12150,-1.0,-0.46,0.04,41.01,44.35,-33.82,475

12170,-0.91,-0.15,0.0,29.8,41.66,-37.28,475

12190,-0.94,-0.21,-0.03,9.41,36.68,-40.15,474

12210,-0.91,-0.31,-0.08,2.09,26.21,-32.78,474

12230,-0.87,-0.36,-0.05,-0.76,25.98,-29.24,474

12251,-0.9,-0.4,0.0,-1.07,23.05,-38.67,474

12270,-0.83,-0.41,-0.02,3.68,25.13,-27.18,474

12291,-0.86,-0.31,-0.03,3.57,24.85,-28.44,474

12310,-0.92,-0.26,-0.06,0.86,25.05,-33.39,474

12331,-0.92,-0.2,-0.01,-1.37,24.42,-32.91,474

12350,-0.92,-0.19,0.04,1.25,25.91,-36.34,474

12370,-0.93,-0.24,0.0,-0.61,25.13,-48.7,475

12390,-0.9,-0.3,-0.02,1.33,27.1,-49.9,475

12410,-0.92,-0.28,-0.0,14.78,34.23,-58.25,475

12430,-0.88,-0.31,-0.05,19.82,36.59,-53.31,476

12450,-0.82,-0.42,-0.02,20.99,39.11,-68.03,476

12470,-0.9,-0.44,-0.0,32.19,50.21,-79.87,477

12490,-0.98,-0.37,-0.06,36.09,47.2,-73.7,478

12510,-0.92,-0.39,-0.11,19.82,41.0,-77.22,479

12530,-0.97,-0.46,0.01,18.9,42.53,-92.72,480

12550,-1.2,-0.27,0.12,34.23,50.03,-93.54,483

12570,-1.3,-0.28,0.19,32.29,41.29,-103.71,485

12591,-1.21,-0.48,0.28,40.06,53.28,-126.1,487

12610,-1.78,-0.74,0.52,72.28,64.88,-111.77,490

12631,-1.58,-0.36,0.28,87.54,26.45,-102.92,491

12650,-1.07,-0.15,-0.19,8.37,2.1,-102.07,490

12670,-0.77,-0.37,-0.49,-91.71,-10.35,-79.8,488

12690,-0.63,-0.69,-0.57,-134.07,-32.69,-84.75,487

12710,-0.28,-0.95,-0.48,-89.59,-59.88,-49.35,486

12730,0.03,-1.08,-0.63,-18.65,-44.71,-7.45,486

12750,0.01,-0.82,-0.28,27.93,-41.93,55.97,486

12770,-0.34,-0.73,-0.17,43.41,-68.02,103.54,486

12790,-0.1,-0.55,-0.24,37.64,-83.88,153.33,485

12810,-0.11,-0.64,-0.21,32.26,-87.91,188.1,484

12830,-0.26,-0.74,-0.17,28.83,-89.32,219.78,483

12850,-0.45,-0.78,-0.13,23.62,-107.65,239.7,482

12870,-0.64,-0.7,0.03,11.77,-119.42,246.02,481

12891,-0.75,-0.57,0.12,-24.87,-128.75,260.43,478

12910,-0.84,-0.57,0.21,-59.71,-128.71,249.84,475

12931,-1.04,-0.22,0.25,-77.25,-125.19,258.98,472

12950,-0.97,-0.44,-0.05,-44.64,-90.52,193.98,471

12971,-1.05,-0.49,0.14,-0.33,-77.12,155.13,469

12990,-0.71,-0.13,0.14,40.95,-19.44,93.38,468

13010,-1.01,0.17,0.15,55.62,8.45,43.24,469

13030,-0.9,0.19,0.1,37.21,12.55,-15.18,470

13050,-0.78,-0.02,0.02,-3.91,19.72,-61.4,469

13070,-0.73,-0.18,-0.11,-43.05,26.55,-90.29,469

13090,-0.74,-0.55,0.11,-44.59,31.43,-95.93,468

13110,-1.43,-0.39,0.5,2.46,57.48,1.62,468

13130,-1.61,0.05,0.29,-17.1,-3.55,-18.26,473

13150,-0.81,-0.2,-0.01,-62.33,32.76,-87.83,472

13170,-0.7,-0.56,-0.01,-60.47,24.07,-60.68,472

13190,-0.61,-0.57,0.03,4.83,38.9,-25.29,471

13210,-1.07,-0.14,0.13,7.56,34.71,-39.91,474

13231,-0.85,-0.09,0.14,-24.06,31.94,-36.46,474

13250,-0.92,-0.41,-0.1,-21.3,43.43,-43.16,474

13271,-0.87,-0.53,-0.13,3.56,37.97,-45.84,474

13290,-0.83,-0.56,-0.04,30.34,47.33,-48.56,474

13310,-0.96,-0.34,0.02,31.77,37.46,-36.57,475

13330,-0.86,-0.27,-0.03,9.38,32.27,-35.07,474

13350,-0.86,-0.47,-0.05,2.34,34.06,-30.2,474

13370,-0.86,-0.5,-0.06,13.31,28.64,-37.86,474

13390,-0.86,-0.42,-0.04,21.41,32.39,-39.92,475

13410,-0.9,-0.35,0.03,25.96,32.52,-27.96,475

13430,-0.87,-0.31,0.01,29.5,34.1,-31.57,475

13450,-0.96,-0.15,-0.08,18.93,29.77,-35.98,475

13470,-0.91,-0.13,-0.1,-0.87,19.57,-30.96,474

13490,-0.9,-0.22,-0.05,-10.15,17.81,-40.24,475

13510,-0.89,-0.31,0.0,-9.16,17.77,-46.81,476

13531,-0.87,-0.33,0.03,-0.04,22.84,-53.94,476

13550,-0.9,-0.33,-0.04,8.87,26.23,-48.44,476

13571,-0.9,-0.27,-0.16,-0.14,19.07,-44.74,476

13590,-0.88,-0.3,-0.09,-15.19,11.13,-46.67,476

13611,-0.88,-0.45,-0.11,-19.01,12.36,-54.99,476

13630,-0.77,-0.6,-0.13,-15.11,19.51,-44.8,477

13650,-0.79,-0.5,-0.03,5.64,29.07,-46.56,477

13670,-0.93,-0.37,0.03,15.38,39.05,-60.02,478

13690,-1.0,-0.32,0.12,31.02,53.62,-68.08,481

13710,-1.32,-0.1,0.16,61.42,77.45,-82.79,483

13730,-1.95,-0.13,0.33,68.8,78.65,-94.57,486

13750,-1.72,-0.28,0.39,56.2,46.9,-128.55,488

13770,-1.27,-0.45,0.37,44.75,41.92,-151.73,489

13790,-1.03,-0.49,-0.09,20.95,34.35,-121.2,488

13810,-0.61,-0.49,-0.45,-48.81,-21.32,-87.95,485

13830,-0.19,-0.48,-0.79,-101.27,-36.17,-70.39,484

13850,-0.33,-0.99,-0.44,-92.96,4.39,-91.2,485

13871,-0.46,-1.25,-0.15,-19.56,-14.13,-36.24,487

13890,-0.14,-1.16,-0.09,44.61,-32.95,20.01,487

13911,-0.21,-0.66,0.03,71.85,-30.78,80.4,487

13930,-0.31,-0.5,-0.13,52.87,-59.59,131.76,486

13950,-0.4,-0.52,-0.1,20.83,-65.84,185.48,485

13970,-0.51,-0.73,-0.14,12.12,-86.09,198.4,483

13990,-0.55,-0.71,-0.12,10.92,-99.51,218.03,483

14010,-0.69,-0.63,0.02,11.54,-107.39,223.23,481

14030,-0.88,-0.55,0.18,-1.66,-125.96,225.39,479

14050,-0.82,-0.54,0.13,-31.57,-125.48,218.88,476

14070,-0.75,-0.42,0.26,-39.2,-107.24,224.27,473

14090,-0.85,-0.47,-0.03,-19.8,-96.25,211.24,471

14110,-1.11,-0.51,0.01,35.91,-63.24,165.37,469

14130,-0.98,-0.12,0.19,39.01,-59.8,147.6,468

14150,-0.82,0.01,0.12,29.44,-29.18,103.9,467

14171,-0.96,0.06,0.13,28.61,-6.64,45.4,468

14190,-0.88,0.28,0.15,10.02,-1.45,17.42,468

14211,-0.79,0.02,0.01,-25.66,8.53,-48.55,468

14230,-0.76,-0.21,-0.02,-57.02,9.19,-83.44,469

14251,-0.56,-0.44,-0.08,-77.31,16.52,-96.73,468

14270,-0.68,-0.65,0.12,-44.67,37.33,-83.27,467

14290,-1.56,-0.28,0.58,2.6,35.4,18.78,470

14310,-1.39,0.08,0.28,-25.11,1.13,-32.92,474

14330,-0.86,-0.19,0.04,-74.23,28.49,-74.64,472

14350,-0.65,-0.64,-0.04,-61.11,20.99,-44.28,471

14370,-0.6,-0.67,-0.04,22.99,53.48,-22.22,471

14390,-1.08,-0.25,0.04,35.76,48.1,-33.58,474

14410,-1.04,-0.03,0.02,-2.64,38.38,-38.26,473

14430,-0.9,-0.27,-0.07,-28.53,27.25,-39.25,472

14450,-0.84,-0.45,-0.09,-23.54,28.99,-39.35,473

14470,-0.96,-0.5,-0.03,1.15,34.71,-44.93,474

14490,-0.89,-0.32,-0.03,11.09,29.36,-40.55,474

14511,-0.9,-0.27,-0.02,3.7,27.92,-27.06,473

14530,-0.93,-0.3,-0.04,-3.11,23.63,-34.59,474

14551,-0.86,-0.4,-0.07,-2.49,24.49,-29.4,474

14570,-0.86,-0.43,-0.02,-0.81,20.62,-34.03,473

14590,-0.85,-0.38,0.06,-2.36,19.75,-21.55,473

14610,-0.85,-0.36,-0.01,-2.2,22.09,-38.52,473

14630,-0.9,-0.3,-0.06,-5.2,19.43,-24.79,473

14650,-0.88,-0.3,0.02,-2.46,21.04,-26.92,473

14670,-0.96,-0.2,0.03,0.02,22.33,-38.23,474

14690,-0.93,-0.16,-0.03,-10.96,15.33,-36.66,474

14710,-0.86,-0.26,-0.03,-17.51,17.36,-49.43,473

14730,-0.89,-0.31,-0.01,-12.23,21.0,-42.21,474

14750,-0.87,-0.36,-0.01,-2.79,21.68,-46.65,475

14770,-0.84,-0.35,-0.03,-3.14,23.72,-51.3,475

14790,-0.85,-0.41,-0.04,-1.27,28.55,-56.14,476

14811,-0.87,-0.38,0.0,12.72,36.39,-75.64,476

14830,-0.87,-0.37,0.03,31.19,51.98,-77.34,478

14851,-1.12,-0.4,0.08,61.59,72.68,-91.92,480

14870,-1.94,-0.36,0.67,121.68,86.06,-106.68,485

14891,-2.0,-0.19,0.71,153.88,77.11,-134.61,490

14910,-1.45,0.04,0.43,94.72,75.52,-159.21,490

14930,-1.25,-0.25,-0.13,13.28,42.45,-126.2,489

14950,-0.76,-0.52,-0.47,-85.25,-28.98,-104.4,485

14970,-0.09,-0.74,-0.7,-116.04,-27.04,-80.98,483

14990,-0.2,-1.26,-0.28,-66.44,23.84,-64.91,484

15010,-0.53,-1.33,-0.03,15.79,-14.71,-4.61,485

15030,-0.04,-0.84,-0.17,59.54,-30.08,51.47,485

15050,-0.08,-0.48,-0.13,49.41,-41.61,99.81,485

15070,-0.14,-0.52,-0.24,23.39,-62.92,154.97,484

15090,-0.28,-0.67,-0.19,4.52,-74.89,182.51,483

15110,-0.38,-0.78,-0.19,5.27,-97.1,205.7,482

15130,-0.49,-0.68,-0.08,-4.03,-113.5,231.59,481

15151,-0.65,-0.66,-0.03,-23.2,-125.68,242.5,480

15170,-0.78,-0.61,-0.02,-45.14,-127.19,226.0,477

15191,-0.94,-0.54,0.01,-56.27,-127.65,214.54,474

15210,-0.99,-0.6,0.08,-36.55,-129.61,206.03,471

15230,-0.84,-0.45,0.24,-0.04,-86.43,186.61,469

15250,-0.79,-0.33,0.16,29.51,-49.55,140.93,468

15270,-0.83,-0.03,-0.05,45.74,-10.54,107.11,468

15290,-0.97,0.24,0.2,35.67,5.91,58.26,469

15310,-0.86,0.36,0.18,-12.44,-2.98,25.98,468

15330,-0.81,0.28,0.09,-59.33,5.74,-35.73,468

15350,-0.78,0.01,0.06,-107.97,2.09,-71.38,468

15370,-1.05,-0.6,0.52,-86.4,22.53,-47.37,466

15390,-1.56,-0.42,0.6,-34.52,-8.55,14.8,468

15410,-0.84,-0.09,-0.02,-15.2,28.01,-63.71,471

15430,-1.06,-0.13,-0.26,-71.42,9.46,-42.72,469

15451,-0.71,-0.53,-0.22,-51.42,22.2,-9.87,468

15470,-0.93,-0.78,0.01,4.81,34.44,-23.26,468

15491,-0.98,-0.47,0.09,7.07,22.16,-32.25,472

15510,-0.79,-0.42,-0.02,-10.38,24.01,-32.21,474

15531,-0.88,-0.55,-0.17,-1.63,23.58,-14.46,471

15550,-0.96,-0.4,-0.07,15.1,19.83,-7.71,470

15570,-0.93,-0.2,0.13,22.17,18.35,-2.03,470

15590,-0.95,0.01,0.17,6.43,12.59,1.47,473

15610,-0.93,-0.09,0.13,-8.59,12.06,-4.06,473

15630,-0.94,-0.21,0.02,-2.5,12.75,-16.19,472

15650,-0.95,-0.14,0.04,8.61,15.97,-6.05,471

15670,-1.01,0.0,0.08,0.44,7.92,-1.51,472

15690,-0.97,-0.06,0.08,-16.9,4.15,-9.15,473

15710,-0.92,-0.19,0.05,-17.16,5.62,-15.35,473

15730,-0.95,-0.18,0.1,-7.07,8.81,-12.93,472

15750,-0.97,-0.23,0.07,-6.4,8.16,-9.44,473

15770,-0.88,-0.26,0.09,-10.58,5.65,-7.66,473

15791,-0.82,-0.49,0.03,-2.67,9.66,-7.59,473

15810,-0.96,-0.46,-0.07,11.22,12.1,-19.39,473

15831,-0.9,-0.31,-0.05,20.9,8.39,0.53,472

15850,-1.01,-0.09,0.01,11.62,4.7,-2.16,472

15870,-0.97,-0.1,0.07,-11.75,-9.64,-10.04,472

15890,-0.85,-0.23,0.12,-21.66,-8.11,-12.19,473

15910,-0.87,-0.39,0.11,-9.36,-1.94,-6.21,473

15930,-0.92,-0.29,0.07,3.6,1.84,-5.66,473

15950,-0.94,-0.17,0.07,4.93,1.11,-16.88,473

15970,-0.96,-0.17,0.1,-1.31,-3.93,-3.46,472

15990,-0.89,-0.23,0.1,-5.52,-2.75,-7.34,472

16010,-0.93,-0.28,0.11,-8.0,-3.22,8.85,473

16030,-0.91,-0.27,0.1,-6.69,-3.35,-4.94,472

16050,-0.91,-0.24,0.06,-4.98,-0.98,-2.34,472

16070,-0.87,-0.31,0.1,2.43,3.08,-3.49,472

16091,-0.96,-0.24,0.13,11.96,5.91,-1.47,472

16110,-0.95,-0.15,0.04,4.93,2.2,-0.27,472

16131,-0.91,-0.23,0.05,-1.72,2.15,-1.85,471

16150,-0.92,-0.29,0.09,2.98,1.13,9.69,471

16171,-0.91,-0.23,0.07,6.22,2.24,-12.05,472

16190,-0.94,-0.21,0.05,3.44,0.2,6.13,472

16210,-0.93,-0.2,0.06,1.93,-0.2,-7.01,471

16230,-0.94,-0.22,0.06,2.08,0.16,-2.78,471

16250,-0.93,-0.22,0.04,2.35,-0.14,-8.45,471

16270,-0.93,-0.23,0.05,3.45,2.52,-2.43,471

16290,-0.94,-0.23,0.07,0.86,1.57,-1.46,471

