Time,AccX,AccY,AccZ,GyroX,GyroY,GyroZ,Capacitance

7265,-0.89,-0.34,0.07,-0.51,0.09,-5.62,471

7285,-0.89,-0.35,0.07,-0.56,-0.16,-11.25,468

7305,-0.89,-0.35,0.08,-0.61,-0.13,-0.72,468

7325,-0.89,-0.34,0.07,-0.58,-0.22,-7.32,468

7345,-0.89,-0.34,0.06,-0.47,-0.08,8.49,468

7365,-0.9,-0.34,0.07,-0.48,0.06,-0.7,468

7386,-0.89,-0.35,0.08,-1.67,-0.4,-5.89,468

7405,-0.89,-0.36,0.06,-1.67,-0.2,-1.51,468

7426,-0.88,-0.35,0.07,-0.7,0.01,-6.29,468

7445,-0.89,-0.35,0.07,-0.28,0.64,-4.47,468

7465,-0.89,-0.35,0.08,-0.8,0.12,-4.13,468

7485,-0.89,-0.34,0.08,-1.25,-0.02,-1.4,468

7505,-0.9,-0.35,0.06,-1.67,-0.25,-4.03,468

7525,-0.88,-0.36,0.06,-1.61,-0.81,-2.14,468

7545,-0.88,-0.36,0.06,-0.54,-0.09,3.18,468

7565,-0.89,-0.35,0.07,0.36,-0.2,3.34,468

7585,-0.89,-0.34,0.07,-0.13,0.12,-5.46,468

7605,-0.89,-0.36,0.07,-0.44,-0.2,5.61,468

7625,-0.88,-0.36,0.07,0.28,0.01,5.2,468

7645,-0.89,-0.34,0.05,0.25,-0.02,-0.52,468

7665,-0.9,-0.34,0.07,0.02,-0.52,-5.69,468

7686,-0.89,-0.35,0.07,0.17,-0.17,5.05,468

7706,-0.89,-0.36,0.07,0.46,-0.26,6.12,468

7727,-0.89,-0.36,0.06,0.54,0.12,-3.25,468

7746,-0.88,-0.35,0.07,1.53,0.21,-0.58,468

7767,-0.89,-0.34,0.07,2.59,0.82,1.3,468

7786,-0.89,-0.31,0.08,1.65,0.55,-0.77,468

7806,-0.9,-0.32,0.09,-1.2,0.01,-0.68,468

7826,-0.89,-0.34,0.08,-2.06,-0.25,-7.11,468

7846,-0.89,-0.33,0.09,-3.35,-0.61,2.74,468

7866,-0.88,-0.34,0.07,-4.56,-1.19,1.94,468

7886,-0.89,-0.34,0.08,-4.3,-0.92,-4.93,468

7906,-0.88,-0.3,0.1,-7.25,-1.74,-1.86,468

7926,-0.86,-0.36,0.08,-11.38,-3.84,5.12,468

7946,-0.86,-0.36,0.07,-9.49,-3.01,-4.56,468

7966,-0.9,-0.27,0.09,-8.06,-1.41,-5.59,468

7986,-0.92,-0.27,0.05,-12.73,-6.46,-0.11,468

8006,-0.92,-0.35,0.04,-6.54,-1.71,-1.41,468

8027,-0.95,-0.23,0.08,-4.53,-4.06,-9.09,469

8046,-0.93,-0.14,0.09,-16.35,-6.23,-7.64,469

8067,-0.9,-0.31,0.07,-23.61,-7.12,-17.56,469

8086,-0.91,-0.43,0.03,-15.16,-3.47,-16.06,469

8107,-0.91,-0.35,-0.01,-2.1,0.18,-15.36,470

8126,-0.85,-0.36,-0.02,12.23,8.53,-29.05,470

8146,-0.97,-0.36,0.07,23.06,13.83,-19.54,471

8166,-0.92,-0.31,0.09,20.62,9.46,-19.71,472

8186,-0.9,-0.34,0.09,22.48,12.09,-25.42,472

8206,-0.93,-0.28,0.11,32.84,14.64,-31.29,473

8226,-1.02,-0.05,0.2,46.3,24.68,-39.91,474

8246,-1.07,0.12,0.29,43.39,27.16,-49.3,476

8266,-1.17,0.14,0.22,2.6,8.64,-52.59,479

8286,-1.07,-0.19,0.13,-51.57,-17.16,-46.89,479

8306,-0.82,-0.84,0.03,-71.48,-23.99,-57.49,479

8326,-0.82,-0.98,0.21,-43.0,-37.9,-2.52,478

8346,-0.78,-0.48,0.13,-29.25,-47.65,47.73,478

8367,-0.82,-0.34,0.08,-43.25,-58.96,67.81,478

8386,-0.92,-0.47,0.14,-35.17,-63.41,98.35,478

8407,-0.88,-0.54,0.15,-18.22,-60.72,95.67,478

8426,-0.79,-0.41,0.18,1.72,-55.44,113.16,478

8446,-0.68,-0.37,0.17,14.36,-43.06,104.78,478

8466,-0.85,-0.38,0.16,28.78,-22.37,94.97,477

8486,-0.89,-0.22,0.1,31.01,-23.96,108.17,477

8506,-0.89,-0.15,0.08,21.03,-20.52,95.76,476

8526,-0.8,-0.23,0.08,16.43,-24.14,88.57,475

8546,-0.76,-0.32,0.11,25.35,-9.29,74.81,476

8566,-0.87,-0.32,0.13,42.45,4.93,58.66,476

8586,-0.98,-0.1,0.08,41.5,8.27,47.52,476

8606,-0.92,-0.16,0.14,29.93,7.75,25.53,477

8626,-0.86,-0.15,0.21,19.46,10.52,23.77,477

8646,-0.91,-0.05,0.17,-8.91,5.46,11.2,477

8667,-0.95,-0.12,0.2,-38.18,-6.11,8.99,477

8686,-0.84,-0.19,0.2,-52.21,-7.25,-3.74,477

8707,-0.87,-0.21,0.13,-60.04,-4.77,-18.43,477

8726,-0.79,-0.27,0.17,-66.5,-7.1,-31.64,477

8747,-0.58,-0.52,0.08,-52.39,5.48,-64.59,477

8766,-0.7,-0.7,0.24,7.09,39.69,-45.84,477

8786,-1.2,-0.43,0.65,98.2,66.23,1.44,478

8806,-1.37,0.25,0.3,69.04,41.05,-5.26,479

8826,-1.09,0.19,-0.07,-26.96,15.11,-42.38,477

8846,-0.7,-0.56,-0.17,-19.6,25.49,-33.93,476

8866,-0.93,-0.49,-0.09,41.09,48.55,-30.47,476

8886,-1.09,0.14,0.12,24.84,30.7,-29.06,476

8906,-0.82,-0.11,0.16,-13.63,24.15,-33.37,476

8926,-0.94,-0.48,-0.12,-13.05,26.7,-31.95,476

8946,-1.0,-0.51,-0.24,7.93,24.65,-32.47,476

8966,-0.9,-0.32,-0.11,21.35,21.34,-19.86,476

8986,-0.93,-0.23,0.04,22.2,22.44,-22.14,477

9007,-0.9,-0.21,0.11,15.65,17.26,-21.83,478

9026,-0.87,-0.31,0.1,9.35,16.45,-27.95,478

9047,-0.89,-0.42,0.04,13.06,24.5,-21.81,477

9066,-0.91,-0.32,-0.01,15.44,20.26,-21.22,477

9086,-0.88,-0.32,-0.0,13.97,20.29,-23.67,477

9106,-0.87,-0.39,0.06,16.6,19.14,-14.23,477

9126,-0.89,-0.36,0.02,15.26,19.62,-20.32,477

9146,-0.89,-0.42,-0.04,17.72,17.34,-25.76,476

9166,-0.91,-0.37,0.0,23.41,18.53,-14.2,476

9186,-0.97,-0.24,0.02,19.26,15.4,-16.76,476

9206,-0.87,-0.27,0.01,10.55,9.43,-27.74,476

9226,-0.89,-0.34,0.03,18.4,17.58,-29.0,475

9246,-0.95,-0.22,0.0,27.12,19.69,-31.68,475

9266,-0.98,-0.16,-0.06,28.1,20.81,-27.34,475

9286,-0.95,-0.14,-0.03,30.33,18.16,-43.49,475

9307,-0.93,-0.08,0.01,21.78,17.37,-41.74,475

9326,-0.98,-0.15,-0.0,10.07,13.83,-45.88,475

9347,-0.95,-0.16,-0.02,0.91,6.76,-53.09,475

9366,-0.89,-0.23,0.01,-1.22,7.1,-53.88,475

9387,-0.91,-0.28,0.02,0.63,8.42,-60.42,475

9406,-0.88,-0.27,0.04,5.01,10.2,-67.79,476

9426,-0.91,-0.14,0.03,8.88,15.08,-81.81,478

9446,-0.97,-0.11,0.03,3.04,14.55,-92.05,478

9466,-1.08,-0.21,-0.0,-1.69,17.37,-94.31,481

9486,-1.33,-0.19,0.18,5.24,16.64,-108.91,484

9506,-1.48,-0.07,0.39,12.43,22.75,-117.89,487

9526,-1.54,-0.07,0.51,19.04,29.75,-143.83,490

9546,-1.4,-0.19,0.3,11.38,26.13,-129.15,491

9566,-1.02,-0.42,-0.12,-33.19,-1.25,-120.13,490

9586,-0.59,-0.54,-0.42,-108.64,-38.84,-99.15,487

9606,-0.48,-1.0,-0.44,-140.79,-41.19,-88.47,486

9626,-0.35,-1.56,-0.19,-64.93,-28.72,-81.43,487

9647,-0.2,-1.39,-0.12,31.23,-9.53,-14.9,487

9666,-0.21,-0.77,-0.01,77.39,-13.7,42.21,487

9687,-0.2,-0.66,-0.07,72.1,-23.79,85.61,486

9706,-0.44,-0.59,-0.02,53.91,-35.87,127.4,486

9726,-0.45,-0.57,-0.06,13.42,-64.08,161.24,485

9746,-0.42,-0.64,-0.01,-19.51,-83.85,191.31,485

9766,-0.43,-0.83,-0.04,-27.64,-92.92,204.24,484

9786,-0.54,-0.78,-0.01,-24.3,-92.83,221.51,483

9806,-0.68,-0.7,-0.0,-33.72,-100.03,228.09,482

9826,-0.71,-0.78,0.01,-28.76,-102.09,199.42,479

9846,-0.78,-0.51,0.18,-2.36,-73.51,209.74,476

9866,-0.68,-0.43,0.05,4.72,-79.07,211.52,474

9886,-0.94,-0.51,-0.03,21.29,-35.87,154.81,473

9906,-1.09,-0.23,0.09,37.46,-32.8,135.69,472

9926,-0.85,-0.17,0.12,44.43,-15.55,101.15,472

9947,-0.82,-0.15,0.17,56.92,12.06,52.8,472

9966,-0.88,0.21,0.16,41.97,13.05,40.45,472

9987,-0.95,0.27,0.09,3.29,8.44,-21.86,472

10006,-0.89,0.05,0.09,-47.96,-4.29,-61.81,473

10027,-0.6,-0.39,0.04,-75.67,-2.98,-78.93,474

10046,-0.77,-0.74,0.25,-45.06,29.45,-69.3,474

10066,-1.66,-0.4,0.62,6.39,31.13,-0.08,476

10086,-1.14,-0.01,0.03,-2.8,16.27,-64.25,477

10106,-0.94,-0.22,-0.0,-47.57,14.79,-69.62,475

10126,-0.63,-0.28,-0.18,-48.96,19.66,-21.03,474

10146,-0.78,-0.33,0.14,-26.85,27.0,-31.51,475

10166,-1.0,-0.34,0.2,-36.25,28.27,-40.11,476

10186,-0.87,-0.36,0.08,-48.35,17.45,-26.17,475

10206,-0.81,-0.48,-0.18,-35.51,26.64,-34.19,475

10226,-0.92,-0.52,-0.17,-6.64,32.49,-32.16,475

10246,-0.97,-0.32,0.02,11.35,28.47,-25.42,475

10266,-0.93,-0.17,0.07,-1.89,22.42,-33.57,476

10287,-0.84,-0.26,0.06,-17.16,18.79,-43.73,475

10306,-0.88,-0.33,0.04,-9.14,26.0,-30.64,475

10327,-0.92,-0.3,-0.0,1.62,27.34,-39.85,475

10346,-0.9,-0.26,0.05,-7.98,21.63,-36.31,475

10366,-0.86,-0.34,-0.02,-20.42,16.06,-36.56,474

10386,-0.87,-0.4,-0.02,-17.11,16.7,-26.57,474

10406,-0.88,-0.36,-0.02,-9.23,18.0,-32.17,474

10426,-0.89,-0.34,0.05,-6.93,16.42,-35.59,474

10446,-0.9,-0.25,0.04,-6.71,19.77,-25.24,474

10466,-0.9,-0.25,0.03,-6.76,18.53,-33.98,474

10486,-0.85,-0.34,-0.03,-1.29,22.32,-42.73,473

10506,-0.84,-0.4,-0.03,7.33,23.94,-46.28,473

10526,-0.87,-0.33,-0.01,16.59,33.16,-53.8,473

10546,-0.89,-0.22,0.01,31.13,39.83,-47.55,474

10566,-0.93,-0.01,0.03,37.24,46.33,-62.0,474

10587,-1.02,0.13,-0.12,22.48,49.98,-63.37,474

10606,-1.19,-0.16,-0.07,16.3,46.88,-102.11,475

10627,-1.0,-0.82,0.28,73.39,65.42,-153.74,480

10646,-1.41,-0.86,0.51,142.77,116.21,-152.99,485

10667,-1.75,-0.53,0.6,180.04,99.71,-143.03,487

10686,-1.65,-0.17,0.37,152.75,63.66,-143.76,490

10706,-1.22,0.09,0.12,65.42,43.94,-137.74,488

10726,-0.69,-0.15,-0.31,-61.54,-21.47,-85.25,486

10746,-0.26,-0.78,-0.44,-103.69,17.02,-89.13,485

10766,-0.63,-1.43,-0.11,-45.06,32.9,-86.06,486

10786,-0.67,-1.23,-0.09,42.86,1.8,5.57,487

10806,-0.27,-0.63,-0.16,65.97,-5.67,60.01,487

10826,-0.29,-0.45,-0.19,36.65,-19.19,95.96,486

10846,-0.35,-0.59,-0.22,11.58,-41.09,134.06,485

10866,-0.37,-0.78,-0.12,12.14,-55.06,162.49,485

10886,-0.4,-0.79,-0.12,22.34,-71.8,182.78,484

10906,-0.4,-0.65,-0.05,21.61,-83.47,216.32,483

10927,-0.57,-0.54,0.02,-14.74,-105.76,228.05,482

10946,-0.64,-0.47,0.1,-65.06,-122.08,247.32,481

10967,-0.6,-0.59,0.06,-102.96,-137.44,240.97,478

10986,-0.73,-0.66,0.12,-103.52,-127.04,225.48,475

11006,-1.05,-0.76,0.22,-59.12,-105.19,201.25,474

11026,-0.9,-0.73,0.23,-1.52,-79.93,178.27,474

11046,-0.76,-0.39,0.13,52.57,-27.13,143.09,473

11066,-0.86,0.03,-0.04,71.81,4.79,127.61,472

11086,-1.08,0.25,0.05,47.72,9.22,73.18,472

11106,-0.97,0.22,0.23,8.07,2.35,19.51,471

11126,-0.84,0.06,0.06,-11.03,11.48,-27.7,471

11146,-0.81,-0.16,0.04,-26.53,13.16,-61.25,471

11166,-0.69,-0.41,0.03,-41.75,20.32,-91.07,472

11186,-0.83,-0.69,0.45,-20.1,36.94,-85.5,473

11206,-1.69,-0.43,0.67,43.56,44.65,-2.54,475

11227,-0.99,0.02,-0.08,24.92,29.69,-54.32,476

11246,-0.82,-0.22,-0.04,-31.66,27.39,-74.29,475

11267,-0.66,-0.57,-0.06,-7.7,35.02,-40.55,475

11286,-1.02,-0.33,0.1,13.41,37.07,-43.6,478

11307,-1.03,-0.18,-0.04,-17.74,25.0,-52.34,478

11326,-0.8,-0.53,0.03,-19.48,24.71,-51.14,477

11346,-0.77,-0.62,-0.09,12.77,34.0,-43.88,479

11366,-0.93,-0.48,-0.1,25.29,36.12,-38.49,478

11386,-0.94,-0.33,0.0,8.92,21.58,-22.54,476

11406,-0.83,-0.44,0.03,0.95,19.6,-41.15,477

11426,-0.89,-0.45,0.04,8.97,22.59,-23.13,478

11446,-0.91,-0.24,0.0,9.38,21.52,-19.05,477

11466,-0.93,-0.14,0.02,-0.47,17.54,-18.39,476

11486,-0.99,-0.11,-0.01,-11.51,12.64,-20.99,477

11506,-0.93,-0.19,-0.02,-16.97,7.1,-24.53,476

11526,-0.87,-0.25,0.02,-13.61,10.16,-24.68,476

11546,-0.97,-0.14,0.03,-18.79,8.0,-21.96,476

11567,-0.95,-0.1,-0.0,-34.35,1.58,-19.18,476

11586,-0.9,-0.21,-0.01,-42.77,-1.67,-26.51,475

11607,-0.87,-0.28,0.05,-37.16,2.58,-28.53,475

11626,-0.93,-0.24,0.1,-23.19,11.81,-39.54,476

11646,-0.84,-0.2,-0.09,-3.86,22.27,-51.78,476

11666,-0.98,-0.17,-0.03,-10.53,19.16,-50.74,475

11686,-0.92,-0.22,-0.12,-25.4,10.62,-55.92,474

11706,-0.86,-0.38,-0.07,-27.08,11.26,-68.22,474

11726,-0.85,-0.41,0.06,-10.22,15.72,-55.86,475

11746,-0.85,-0.3,0.1,5.47,20.84,-72.82,476

11766,-0.87,-0.26,0.1,14.92,30.15,-76.13,478

11786,-0.93,-0.36,0.08,26.69,40.35,-91.93,480

11806,-1.12,-0.42,0.09,51.91,49.37,-111.61,482

11826,-1.57,-0.46,0.29,83.59,69.83,-136.24,486

11846,-1.98,-0.4,0.55,128.34,87.87,-150.99,491

11867,-1.84,-0.13,0.5,153.15,83.46,-170.63,492

11886,-1.6,0.11,0.49,104.68,45.13,-131.21,493

11907,-0.85,-0.15,-0.05,-31.37,-25.82,-97.11,491

11926,-0.09,-0.69,-0.4,-131.58,-31.8,-86.56,486

11947,0.12,-1.22,-0.53,-125.51,-6.48,-76.09,484

11966,-0.31,-1.34,-0.26,-49.2,0.73,-31.5,485

11986,-0.31,-0.9,-0.25,20.36,-31.16,43.31,486

12006,-0.08,-0.59,-0.19,47.7,-30.92,96.21,485

12026,-0.21,-0.64,-0.16,42.98,-56.92,138.05,485

12046,-0.16,-0.74,-0.26,45.93,-62.72,181.62,484

12066,-0.45,-0.73,-0.12,50.52,-68.54,211.8,484

12086,-0.6,-0.6,-0.05,19.88,-94.54,220.76,482

12106,-0.64,-0.51,0.03,-28.51,-109.33,246.6,481

12126,-0.73,-0.52,0.18,-60.61,-111.15,235.02,480

12146,-0.69,-0.73,0.2,-87.8,-115.9,220.74,478

12166,-0.77,-0.64,0.19,-75.66,-106.71,229.1,476

12186,-0.9,-0.64,0.08,-27.84,-86.08,201.2,474

12207,-0.97,-0.65,0.11,24.84,-59.19,164.95,472

12226,-0.81,-0.2,0.13,65.78,-19.77,145.45,471

12247,-0.93,-0.0,0.03,70.25,2.21,84.82,471

12266,-0.98,0.11,0.13,59.62,14.71,50.26,471

12286,-0.92,0.21,0.14,40.91,21.14,0.57,471

12306,-0.92,0.14,0.08,10.95,19.08,-35.31,470

12326,-0.87,0.05,0.08,-36.44,15.43,-82.3,471

12346,-0.88,-0.23,0.17,-65.8,9.23,-100.12,471

12366,-1.39,-0.29,0.63,-54.09,33.77,-17.57,473

12386,-1.17,-0.1,0.25,-57.05,-12.19,-34.03,474

12406,-0.74,-0.47,0.01,-70.68,17.26,-82.8,474

12426,-0.77,-0.72,0.07,-49.81,26.47,-55.45,474

12446,-0.71,-0.57,-0.01,13.39,41.11,-28.39,476

12466,-0.96,-0.16,0.05,10.1,38.12,-28.79,477

12486,-1.01,-0.25,-0.04,-22.74,26.71,-30.52,475

12507,-0.8,-0.58,-0.04,-15.81,28.04,-32.94,476

12526,-0.84,-0.58,-0.05,9.52,36.2,-38.16,477

12547,-0.97,-0.41,-0.09,24.91,38.91,-35.04,476

12566,-0.94,-0.29,-0.02,21.65,30.59,-22.68,475

12587,-0.85,-0.3,0.04,20.39,32.53,-29.93,476

12606,-0.98,-0.23,0.1,22.13,30.53,-23.66,476

12626,-0.94,-0.09,0.01,11.07,27.46,-31.92,476

12646,-0.91,-0.17,-0.05,8.33,28.73,-23.7,475

12666,-0.95,-0.15,0.05,11.17,27.95,-35.12,475

12686,-0.95,-0.05,0.03,-2.25,22.32,-29.13,475

12706,-0.97,-0.11,-0.06,-14.58,20.99,-44.1,474

12726,-0.96,-0.2,-0.1,-27.67,15.04,-42.87,473

12746,-0.88,-0.33,-0.07,-29.12,8.49,-45.39,473

12766,-0.88,-0.33,0.03,-21.69,8.79,-47.03,473

12786,-0.85,-0.31,0.03,-18.68,9.4,-40.02,474

12806,-0.81,-0.37,0.03,-14.35,13.46,-57.68,475

12826,-0.84,-0.3,-0.01,-2.51,22.75,-57.37,475

12847,-0.9,-0.27,-0.03,-1.49,24.27,-56.65,475

12866,-0.89,-0.34,-0.02,-6.64,20.64,-53.0,476

12887,-0.79,-0.38,0.02,-1.72,25.63,-68.64,476

12906,-0.82,-0.28,0.02,13.88,39.08,-82.41,478

12926,-0.97,-0.19,-0.04,28.68,53.77,-78.0,480

12946,-1.28,-0.24,0.12,42.6,64.1,-97.2,482

12966,-1.68,-0.82,0.45,85.7,73.2,-161.03,487

12986,-2.0,-0.89,0.75,192.55,107.74,-183.54,493

13006,-1.73,-0.23,0.41,211.49,91.19,-186.07,495

13026,-1.3,0.12,0.11,117.93,54.16,-120.85,493

13046,-0.66,-0.24,-0.26,-39.41,-28.77,-95.7,489

13066,-0.15,-0.61,-0.63,-136.16,-20.67,-63.52,485

13086,-0.26,-1.15,-0.41,-125.74,-15.24,-64.7,484

13106,-0.32,-1.37,-0.14,-43.54,-24.31,-23.15,485

13126,-0.05,-0.93,-0.15,21.47,-35.16,32.93,485

13147,-0.12,-0.5,-0.08,20.74,-44.11,91.37,485

13166,-0.02,-0.66,-0.28,10.97,-48.37,124.68,485

13187,-0.27,-0.74,-0.17,22.92,-49.58,154.38,485

13206,-0.28,-0.79,-0.13,38.43,-70.55,183.79,484

13227,-0.27,-0.73,-0.05,33.88,-77.51,224.2,484

13246,-0.44,-0.71,0.02,36.92,-79.62,236.84,483

13266,-0.67,-0.58,0.2,25.5,-86.84,257.79,483

13286,-0.77,-0.54,0.26,-17.4,-93.41,259.35,481

13306,-0.93,-0.33,0.35,-61.22,-88.19,265.94,479

13326,-1.07,-0.18,0.26,-79.23,-89.84,256.88,476

13346,-1.01,-0.4,-0.15,-38.79,-72.28,197.23,473

13366,-1.21,-0.32,-0.13,-6.87,-59.96,159.39,471

13386,-0.91,0.08,0.37,12.39,-31.44,104.25,470

13406,-0.8,-0.09,0.04,31.32,6.03,35.96,470

13426,-0.89,0.1,0.12,45.58,16.94,5.75,471

13446,-0.83,0.19,0.1,8.25,13.4,-51.17,471

13466,-0.89,0.08,-0.05,-61.28,6.0,-79.58,471

13487,-0.94,-0.34,0.24,-96.06,1.22,-93.15,471

13506,-1.37,-0.39,0.69,-53.99,37.57,-2.57,473

13527,-1.2,-0.27,0.23,-41.55,-2.02,-39.38,476

13546,-0.7,-0.47,0.03,-55.16,20.87,-86.48,475

13566,-0.68,-0.49,-0.01,-48.32,23.19,-37.09,475

13586,-0.72,-0.52,-0.04,1.44,45.23,-29.98,476

13606,-0.96,-0.36,0.12,12.59,48.13,-43.74,477

13626,-1.0,-0.26,0.01,-4.3,39.84,-40.92,476

13646,-0.94,-0.3,-0.1,-21.74,31.17,-43.99,476

13666,-0.84,-0.47,-0.14,-17.92,27.4,-37.14,476

13686,-0.9,-0.51,-0.0,10.86,36.61,-30.79,475

13706,-0.94,-0.24,0.02,17.78,33.29,-29.95,476

13726,-0.95,-0.09,0.0,-4.87,24.84,-32.66,476

13746,-0.91,-0.16,0.0,-19.41,19.36,-34.2,475

13766,-0.91,-0.34,0.03,-15.12,18.44,-31.63,476

13787,-0.85,-0.39,0.01,-5.98,21.86,-34.24,476

13806,-0.84,-0.4,0.06,-0.99,23.51,-39.84,476

13827,-0.88,-0.35,-0.01,2.63,27.86,-26.58,476

13846,-0.89,-0.32,-0.01,1.58,25.11,-31.87,476

13867,-0.9,-0.36,0.07,3.65,21.23,-42.31,476

13886,-0.89,-0.34,0.07,7.61,16.88,-40.03,476

13906,-0.88,-0.33,0.01,10.28,23.19,-40.45,476

13926,-0.86,-0.38,-0.03,15.41,24.2,-48.98,476

13946,-0.87,-0.41,0.07,31.81,32.87,-53.26,476

13966,-0.88,-0.25,-0.0,39.82,38.64,-50.55,477

13986,-0.89,-0.17,-0.09,31.47,39.31,-61.99,477

14006,-0.9,-0.23,-0.06,26.92,39.1,-61.24,477

14026,-0.96,-0.31,-0.0,32.46,43.17,-81.45,478

14046,-1.0,-0.31,0.02,33.27,48.41,-72.4,481

14066,-1.07,-0.22,0.1,43.7,58.47,-100.85,483

14086,-1.46,0.05,0.24,72.33,77.92,-94.22,487

14106,-2.0,-0.0,0.66,96.49,81.69,-119.39,491

14127,-2.0,-0.46,0.68,110.51,74.67,-184.4,495

14146,-1.55,-0.36,0.3,79.09,28.16,-153.53,495

14167,-0.75,-0.65,-0.29,-20.64,-11.48,-118.31,491

14186,-0.22,-0.69,-0.61,-110.94,-33.94,-69.57,486

14206,0.03,-0.98,-0.63,-96.74,-17.94,-50.75,484

14226,-0.1,-1.16,-0.33,-35.35,-8.29,-21.57,483

14246,-0.01,-1.05,-0.3,25.55,-30.03,19.64,485

14266,-0.11,-0.68,0.01,57.99,-29.77,61.44,485

14286,-0.06,-0.6,-0.15,52.75,-66.71,121.32,485

14306,-0.01,-0.57,-0.15,41.68,-67.13,148.07,484

14326,-0.27,-0.67,-0.09,24.42,-74.11,184.51,483

14346,-0.34,-0.67,-0.06,6.04,-94.19,196.48,483

14366,-0.41,-0.59,0.01,-25.46,-109.21,231.16,482

14386,-0.51,-0.71,0.05,-39.77,-112.63,239.72,482

14406,-0.73,-0.67,0.15,-45.26,-102.43,242.7,481

14427,-0.97,-0.54,0.16,-52.51,-101.15,240.0,478

14446,-1.17,-0.53,0.24,-36.28,-97.12,221.5,475

14467,-1.09,-0.31,0.24,-7.25,-80.46,203.24,473

14486,-0.94,-0.31,0.06,27.91,-41.3,140.05,472

14507,-0.99,-0.04,0.11,63.91,-9.71,112.85,470

14526,-0.93,0.26,0.14,62.78,9.11,80.39,469

14546,-0.99,0.26,0.1,49.39,20.68,12.19,469

14566,-0.93,0.21,0.17,21.82,19.22,-28.51,470

14586,-0.83,0.23,0.03,-29.74,14.21,-46.73,470

14606,-0.76,-0.07,-0.01,-74.88,10.29,-102.15,470

14626,-0.79,-0.54,0.31,-81.95,9.1,-94.5,470

14646,-1.32,-0.3,0.79,-47.49,28.18,-0.28,472

14666,-1.23,-0.14,0.33,-53.83,-7.73,-32.41,475

14686,-0.78,-0.58,-0.1,-58.3,24.99,-93.89,475

14706,-0.78,-0.59,-0.07,-32.19,29.69,-42.43,475

14726,-0.66,-0.45,-0.03,21.47,47.28,-27.06,477

14746,-0.99,-0.28,0.09,21.56,49.49,-44.9,476

14767,-1.1,-0.24,0.03,-14.27,32.39,-36.27,476

14786,-0.75,-0.46,-0.06,-19.14,29.4,-39.64,476

14807,-0.84,-0.63,-0.06,14.72,39.11,-42.46,476

14826,-0.99,-0.33,-0.06,23.72,41.13,-31.5,475

14846,-0.96,-0.11,-0.04,8.36,30.3,-27.23,474

14866,-0.9,-0.19,0.01,-3.58,25.54,-27.42,475

14886,-0.94,-0.21,-0.01,-4.45,24.64,-34.5,475

14906,-0.95,-0.19,0.03,-6.38,22.06,-38.81,475

14926,-0.92,-0.14,0.02,-10.47,20.76,-29.82,475

14946,-0.9,-0.14,-0.04,-18.18,18.91,-39.15,474

14966,-0.93,-0.27,-0.03,-23.46,16.7,-39.92,474

14986,-0.9,-0.37,-0.01,-27.72,9.23,-38.89,474

15006,-0.83,-0.36,-0.0,-25.29,11.39,-38.61,474

15026,-0.86,-0.33,-0.01,-20.13,14.24,-38.48,475

15046,-0.86,-0.35,0.04,-16.9,14.01,-48.6,475

15067,-0.9,-0.36,0.04,-10.35,17.04,-49.41,475

15086,-0.89,-0.32,-0.03,0.91,24.91,-56.19,476

15107,-0.9,-0.32,-0.05,0.91,22.82,-43.23,476

15126,-0.8,-0.41,-0.04,-1.83,24.35,-59.42,476

15147,-0.84,-0.53,0.01,10.07,33.04,-57.81,477

15166,-0.88,-0.5,0.12,30.8,40.68,-59.26,479

15186,-0.93,-0.4,0.18,50.66,51.25,-80.83,481

15206,-1.15,-0.26,0.15,70.22,66.2,-92.6,483

15226,-1.73,-0.2,0.46,99.1,76.45,-115.1,487

15246,-2.0,-0.18,0.58,149.59,91.71,-147.25,491

15266,-1.57,-0.05,0.32,137.99,72.41,-175.8,492

15286,-1.04,-0.14,-0.02,57.15,42.84,-127.91,491

15306,-0.62,-0.49,-0.39,-55.26,-18.81,-93.44,488

15326,-0.33,-0.59,-0.56,-108.68,-16.29,-78.83,485

15346,-0.37,-1.05,-0.35,-93.08,-18.26,-68.95,485

15366,-0.35,-1.31,-0.24,-18.16,-17.47,-26.56,485

15386,-0.21,-0.93,-0.07,56.37,-27.9,29.87,486

15407,-0.27,-0.49,-0.09,66.4,-47.36,97.99,486

15426,-0.18,-0.42,-0.16,37.38,-71.65,140.38,484

15447,-0.52,-0.51,-0.14,3.99,-87.13,180.56,483

15466,-0.66,-0.63,-0.09,-25.81,-114.98,202.96,482

15486,-0.66,-0.72,0.01,-40.36,-131.3,211.47,482

15506,-0.67,-0.77,0.1,-30.33,-130.78,215.36,482

15526,-0.7,-0.64,0.23,-34.93,-122.86,234.72,481

15546,-0.7,-0.46,0.31,-42.09,-106.83,238.47,478

15566,-0.79,-0.29,0.2,-49.31,-105.18,239.19,476

15586,-0.9,-0.42,0.24,-31.63,-80.32,230.12,474

15606,-0.9,-0.6,0.16,6.45,-56.34,173.47,472

15626,-0.72,-0.22,-0.01,30.45,-42.28,164.7,469

15646,-0.9,0.07,0.07,28.55,-20.13,140.18,468

15666,-0.86,0.21,0.07,22.22,-16.19,82.35,469

15686,-1.01,0.32,0.04,25.17,17.26,-11.33,470

15707,-0.84,0.13,0.08,0.51,15.86,-43.79,470

15726,-0.71,0.04,-0.08,-52.35,17.34,-81.36,469

15747,-0.85,-0.53,0.39,-78.88,23.14,-106.46,469

15766,-2.0,-0.34,0.94,-42.24,28.55,48.43,471

15787,-0.91,-0.14,-0.1,-41.92,-2.89,-89.14,473

15806,-0.87,-0.52,-0.12,-89.98,14.33,-61.55,473

15826,-0.45,-0.74,-0.2,-32.91,30.39,-6.97,472

15846,-0.82,-0.78,-0.03,28.08,49.16,-19.92,475

15866,-1.33,-0.38,-0.1,13.01,40.15,-35.21,476

15886,-0.84,-0.42,-0.08,-3.54,23.87,-18.82,474

15906,-0.78,-0.43,0.05,7.52,27.89,-12.3,473

15926,-0.94,-0.33,0.1,14.63,34.61,-13.1,475

15946,-1.02,-0.08,0.09,6.83,21.4,-17.37,475

15966,-0.89,-0.07,0.06,2.62,21.74,-6.0,474

15986,-0.97,-0.13,0.09,5.46,21.63,-11.39,474

16006,-0.95,-0.11,0.06,-1.57,17.17,-12.19,475

16026,-0.95,-0.19,0.04,-7.92,14.04,-15.9,474

16047,-0.93,-0.23,0.0,-8.09,12.58,-16.75,474

16066,-0.95,-0.26,0.02,-3.57,13.97,-8.69,474

16087,-0.92,-0.32,0.12,-0.25,10.32,-16.12,474

16106,-0.88,-0.3,0.13,4.28,11.71,-13.47,474

16126,-0.89,-0.24,0.08,6.36,13.37,-8.78,474

16146,-0.95,-0.21,0.01,3.26,12.99,-15.81,474

16166,-0.95,-0.25,0.01,5.21,11.37,-15.93,473

16186,-0.88,-0.23,-0.01,10.39,12.56,-15.6,473

16206,-0.94,-0.27,-0.06,9.96,12.47,-8.32,472

16226,-0.96,-0.38,0.0,9.26,5.65,-10.92,471

16246,-0.88,-0.31,0.04,7.07,4.36,-3.55,471

