Time,AccX,AccY,AccZ,GyroX,GyroY,GyroZ,Capacitance

7266,-0.91,-0.33,0.03,0.64,-2.62,1.23,480

7286,-0.91,-0.29,0.05,2.34,-1.8,0.1,477

7306,-0.93,-0.26,0.05,0.44,-3.32,6.7,477

7326,-0.92,-0.27,0.03,-0.4,-4.27,-0.85,477

7346,-0.91,-0.29,0.05,2.32,-3.51,8.99,477

7366,-0.91,-0.34,0.05,13.74,0.78,-3.43,477

7387,-0.94,-0.22,0.04,14.03,-0.53,2.85,477

7406,-0.94,-0.22,0.05,11.18,-0.82,-3.04,477

7427,-0.93,-0.18,0.03,15.25,0.11,-5.85,477

7446,-0.95,-0.13,0.01,12.49,-0.36,-3.47,477

7467,-0.96,-0.1,0.01,4.81,-3.47,-11.0,477

7486,-0.94,-0.19,0.02,5.71,-3.4,-16.92,477

7506,-0.92,-0.28,0.05,20.75,1.69,-19.42,477

7526,-0.93,-0.24,0.06,28.15,4.51,-21.3,478

7546,-0.94,-0.2,0.07,31.45,3.95,-25.91,478

7566,-0.96,-0.13,0.05,35.6,3.65,-23.85,478

7586,-0.99,-0.03,0.06,38.55,3.73,-37.47,479

7606,-1.01,0.04,0.09,40.14,3.36,-42.58,480

7626,-1.07,0.13,0.11,38.95,3.3,-49.9,481

7646,-1.09,0.18,0.17,25.97,1.93,-49.36,482

7666,-1.18,0.11,0.22,5.89,4.88,-61.31,483

7686,-1.13,-0.16,0.25,-18.69,0.48,-76.49,484

7706,-0.88,-0.5,0.09,-28.66,-4.07,-60.18,482

7727,-0.8,-0.64,0.13,-17.16,0.65,-41.26,481

7746,-0.85,-0.49,0.15,-22.55,-16.07,2.12,480

7767,-0.7,-0.49,0.1,-35.53,-30.44,58.38,479

7786,-0.72,-0.6,0.1,-24.92,-33.81,80.0,479

7806,-0.79,-0.39,0.2,-12.82,-41.23,120.28,480

7826,-0.77,-0.33,0.17,-10.96,-40.68,126.46,481

7846,-0.91,-0.36,0.21,-3.76,-23.38,135.64,482

7866,-0.89,-0.28,0.2,-6.5,-24.15,128.68,482

7886,-0.84,-0.14,0.16,-9.79,-15.18,138.45,482

7906,-0.89,-0.17,0.1,-16.6,-18.99,125.67,481

7926,-0.89,-0.06,0.12,-9.02,-13.78,119.73,480

7946,-0.9,-0.06,0.09,-7.24,-17.46,102.54,480

7966,-0.91,-0.06,0.09,7.47,-6.35,70.14,479

7986,-0.87,-0.1,0.09,21.27,1.93,45.01,479

8006,-0.86,-0.12,0.05,29.88,8.37,25.41,479

8027,-0.9,-0.05,0.13,23.91,10.17,0.27,479

8046,-0.94,-0.02,0.1,3.04,2.82,-5.16,478

8067,-0.97,-0.0,0.05,-18.82,-0.94,-27.12,479

8086,-1.02,0.02,0.06,-51.62,-8.73,-25.0,478

8107,-0.89,-0.14,0.06,-83.86,-23.6,-61.59,478

8126,-0.8,-0.44,0.13,-73.16,-2.85,-50.03,477

8146,-1.66,-0.3,0.44,-15.21,35.21,-34.72,479

8166,-0.97,-0.12,0.26,-15.82,-15.81,-41.82,479

8186,-0.63,-0.33,0.13,-13.22,4.08,-69.97,479

8206,-0.83,-0.39,0.14,-18.24,5.2,-42.75,478

8226,-0.87,-0.32,0.03,-11.07,16.16,-36.54,478

8246,-0.9,-0.32,0.13,-11.68,19.36,-37.48,478

8266,-0.93,-0.28,0.26,-9.88,19.35,-28.26,478

8286,-0.99,-0.02,0.09,-27.89,6.13,-31.21,478

8306,-0.81,-0.22,-0.0,-41.42,10.86,-30.75,477

8326,-0.85,-0.45,0.07,-14.87,29.26,-33.22,477

8346,-0.99,-0.14,0.1,-8.41,24.45,-31.5,477

8367,-0.88,-0.13,0.01,-36.03,12.24,-29.71,477

8386,-0.87,-0.46,-0.03,-31.28,15.69,-28.91,477

8407,-0.91,-0.4,-0.04,-13.77,20.27,-40.56,477

8426,-0.9,-0.31,-0.0,-10.79,18.48,-25.75,477

8446,-0.92,-0.31,0.0,-14.78,12.59,-26.65,476

8466,-0.89,-0.37,0.03,-13.88,10.69,-23.72,476

8486,-0.87,-0.41,0.05,-9.1,11.53,-27.33,476

8506,-0.9,-0.35,0.04,-5.59,11.76,-28.03,477

8526,-0.88,-0.32,0.02,-8.9,9.93,-21.8,476

8546,-0.86,-0.38,0.03,-8.15,11.76,-29.05,476

8566,-0.9,-0.35,0.05,-3.73,12.63,-21.51,476

8586,-0.89,-0.3,0.05,-6.67,10.31,-20.98,476

8606,-0.86,-0.34,0.03,-3.71,14.62,-27.01,476

8626,-0.92,-0.29,0.02,3.51,16.3,-29.18,476

8646,-0.92,-0.22,0.04,3.42,13.35,-33.91,476

8667,-0.89,-0.22,0.0,5.05,12.6,-38.59,476

8686,-0.91,-0.28,-0.05,-1.16,8.48,-43.74,475

8707,-0.88,-0.39,-0.05,-3.28,6.13,-38.35,475

8726,-0.89,-0.36,-0.04,0.17,7.88,-46.83,474

8747,-0.87,-0.38,-0.02,8.08,10.95,-53.05,475

8766,-0.85,-0.35,-0.07,17.15,16.57,-52.03,475

8786,-1.04,-0.31,-0.16,27.74,19.47,-61.74,476

8806,-1.17,-0.36,0.16,49.07,19.0,-92.11,477

8826,-1.25,-0.34,0.29,93.92,37.73,-98.02,479

8846,-1.35,-0.14,0.34,120.76,46.65,-110.5,482

8866,-1.39,-0.18,0.43,124.43,51.5,-134.68,485

8886,-1.52,-0.2,0.3,125.94,54.8,-165.37,488

8906,-1.43,-0.0,0.31,109.97,50.42,-157.89,490

8926,-1.05,-0.13,0.26,65.11,30.59,-143.81,489

8946,-0.65,-0.42,0.07,-2.4,7.0,-113.53,486

8966,-0.49,-0.58,-0.36,-61.31,-31.92,-79.89,483

8986,-0.45,-0.94,-0.17,-44.93,5.7,-56.28,481

9007,-0.49,-1.29,0.02,37.56,26.91,-6.97,482

9026,-0.45,-0.99,0.0,102.26,29.15,37.79,482

9047,-0.46,-0.46,-0.02,87.31,20.42,89.41,481

9066,-0.52,-0.31,0.0,10.73,-23.67,139.73,480

9086,-0.53,-0.56,0.06,-49.59,-46.8,166.65,480

9106,-0.45,-0.88,0.08,-46.72,-49.49,189.41,479

9126,-0.45,-0.97,0.13,-0.5,-35.55,203.35,480

9146,-0.53,-0.67,0.22,18.4,-25.81,226.31,481

9166,-0.61,-0.45,0.24,-16.69,-39.67,233.5,481

9186,-0.67,-0.47,0.22,-52.75,-53.86,251.21,481

9206,-0.8,-0.63,0.21,-63.15,-58.36,242.17,480

9226,-0.84,-0.58,0.23,-52.7,-59.08,239.79,479

9246,-0.85,-0.48,0.22,-36.44,-44.83,215.31,478

9266,-0.96,-0.41,0.21,-21.39,-31.37,196.1,477

9286,-0.91,-0.18,0.05,-10.67,-20.38,160.53,477

9307,-1.0,-0.07,-0.02,-0.41,-3.4,108.23,477

9326,-0.96,0.1,0.11,1.28,-3.17,71.55,476

9347,-0.98,0.15,0.0,-4.06,1.32,24.05,476

9366,-0.99,0.01,0.04,-13.24,3.7,-25.85,476

9387,-0.91,-0.1,0.07,-28.09,0.97,-56.66,476

9406,-0.83,-0.29,0.03,-48.2,-4.77,-88.56,476

9426,-0.64,-0.64,0.07,-59.44,-6.07,-98.25,476

9446,-1.09,-0.28,0.19,25.53,79.33,-45.33,476

9466,-1.74,0.16,0.46,21.28,-2.35,-3.36,479

9486,-0.88,-0.03,0.01,-11.5,-10.77,-71.96,479

9506,-0.73,-0.3,0.18,-68.64,-0.48,-67.31,478

9526,-0.79,-0.4,-0.01,-88.93,-4.09,-25.03,478

9546,-1.0,-0.84,-0.12,-10.73,38.65,-39.41,477

9566,-0.74,-0.45,0.31,24.29,46.48,-52.22,477

9586,-0.93,-0.06,0.34,21.4,40.19,-33.52,478

9606,-0.97,-0.07,0.04,-6.85,18.04,-37.32,477

9626,-0.82,-0.39,-0.17,0.92,29.0,-42.58,476

9647,-0.94,-0.38,-0.09,31.33,40.01,-41.6,476

9666,-0.98,-0.19,-0.0,27.92,34.57,-38.85,477

9687,-0.93,-0.31,0.1,18.78,27.3,-43.09,478

9706,-0.87,-0.41,0.09,29.83,28.04,-39.0,478

9726,-0.94,-0.26,0.05,33.66,29.49,-30.34,478

9746,-0.95,-0.17,-0.08,14.18,19.23,-31.3,477

9766,-0.92,-0.3,-0.06,7.28,16.31,-30.3,477

9786,-0.91,-0.28,-0.02,16.79,19.5,-28.97,477

9806,-0.9,-0.18,0.02,16.82,19.46,-34.63,477

9826,-0.96,-0.16,0.0,7.98,15.32,-29.17,477

9846,-0.92,-0.21,-0.02,3.21,13.4,-34.87,477

9866,-0.92,-0.19,-0.0,5.33,13.61,-40.53,477

9886,-0.95,-0.19,-0.01,0.17,9.88,-42.93,477

9906,-0.89,-0.35,0.02,-3.77,7.32,-43.95,477

9926,-0.83,-0.41,0.03,2.69,10.19,-46.48,477

9947,-0.85,-0.3,0.0,5.47,12.85,-41.04,477

9966,-0.91,-0.29,0.01,3.34,10.37,-44.85,477

9987,-0.89,-0.36,0.03,1.95,6.77,-35.14,477

10006,-0.87,-0.41,0.03,2.95,6.83,-41.76,477

10027,-0.88,-0.38,0.0,6.38,6.39,-50.2,478

10046,-0.86,-0.34,0.01,7.47,8.83,-50.78,477

10066,-0.87,-0.42,-0.05,3.57,8.33,-54.16,478

10086,-0.88,-0.47,-0.04,10.38,12.11,-60.18,479

10106,-0.92,-0.36,0.02,21.15,18.42,-63.26,480

10126,-1.0,-0.27,0.06,21.76,18.04,-68.38,481

10146,-1.0,-0.26,0.09,20.82,18.74,-73.2,482

10166,-1.06,-0.27,-0.0,28.98,21.95,-79.68,484

10186,-1.44,-0.26,0.12,39.76,27.87,-110.21,487

10206,-1.63,-0.28,0.22,58.89,29.65,-127.11,490

10226,-1.58,-0.21,0.38,92.03,35.03,-145.88,493

10246,-1.37,-0.09,0.53,100.95,41.26,-150.18,494

10266,-1.09,-0.29,0.26,64.41,16.98,-131.85,492

10287,-0.58,-0.67,-0.05,-16.81,-36.45,-104.84,487

10306,-0.44,-0.76,-0.49,-66.5,-60.86,-69.03,482

10327,-0.32,-1.06,-0.53,-72.29,-45.37,-56.85,481

10346,-0.33,-1.14,-0.22,-16.75,-9.73,-42.82,482

10366,-0.29,-1.11,-0.04,50.31,-1.52,5.77,482

10386,-0.27,-0.73,-0.01,73.02,-17.17,62.62,481

10406,-0.35,-0.53,-0.05,38.26,-33.37,118.31,481

10426,-0.44,-0.57,-0.04,-10.79,-54.18,131.16,480

10446,-0.45,-0.68,0.02,-49.74,-72.76,162.25,479

10466,-0.35,-0.75,0.15,-59.97,-72.33,189.31,479

10486,-0.32,-0.92,0.07,-28.82,-59.12,212.54,480

10506,-0.47,-0.86,0.15,7.88,-28.93,220.69,482

10526,-0.59,-0.55,0.21,-8.5,-36.7,223.21,483

10546,-0.57,-0.49,0.17,-39.05,-44.82,238.45,483

10566,-0.7,-0.66,0.09,-38.95,-34.05,224.94,482

10587,-0.85,-0.66,0.1,-19.44,-29.44,228.47,481

10606,-0.89,-0.42,0.19,-3.8,-19.66,228.8,479

10627,-0.99,-0.14,0.17,-8.95,-17.46,211.58,478

10646,-1.04,-0.23,0.05,-15.42,-15.7,170.81,477

10667,-0.95,-0.26,0.09,3.98,-4.44,135.41,476

10686,-0.9,-0.16,0.11,28.89,11.32,104.92,476

10706,-0.98,0.01,0.1,36.66,18.54,74.89,476

10726,-1.02,0.22,0.14,12.05,12.13,38.39,476

10746,-1.0,0.23,0.11,-31.92,-3.6,-7.64,476

10766,-0.95,0.06,0.11,-63.88,-10.97,-31.22,476

10786,-0.93,-0.18,0.08,-77.59,-15.67,-57.93,476

10806,-0.82,-0.4,0.03,-72.31,-11.61,-75.0,477

10826,-0.8,-0.56,0.1,-46.29,7.15,-97.42,477

10846,-1.49,-0.23,0.55,25.82,72.02,-19.5,477

10866,-1.16,0.23,0.28,-5.89,-6.91,-27.62,479

10886,-0.87,0.09,0.03,-33.8,-10.24,-67.92,479

10906,-0.87,-0.17,0.14,-78.27,-5.76,-60.67,478

10927,-0.78,-0.45,-0.01,-79.07,-7.99,-39.57,478

10946,-0.81,-0.64,-0.01,-4.23,32.33,-56.47,478

10967,-0.84,-0.3,0.23,14.09,41.15,-33.84,478

10986,-0.92,-0.1,0.29,-4.5,33.04,-39.53,478

11006,-0.97,-0.14,0.16,-25.97,17.2,-43.27,477

11026,-0.81,-0.25,0.06,-27.76,21.09,-44.73,477

11046,-0.89,-0.36,-0.03,-5.02,31.56,-35.42,477

11066,-1.02,-0.33,-0.05,3.62,28.4,-38.89,477

11086,-0.88,-0.27,-0.12,-7.04,23.93,-35.29,476

11106,-0.9,-0.41,-0.01,-7.4,24.42,-33.31,476

11126,-0.92,-0.41,0.08,-5.11,19.04,-21.91,476

11146,-0.86,-0.42,0.07,-4.73,16.65,-32.34,477

11166,-0.86,-0.44,-0.01,5.19,20.85,-22.12,476

11186,-0.9,-0.35,-0.04,16.14,25.14,-24.57,476

11206,-0.96,-0.23,0.01,16.9,21.44,-21.88,477

11227,-0.92,-0.2,0.02,10.08,17.01,-32.18,477

11246,-0.92,-0.32,0.02,16.29,17.17,-30.41,476

11267,-0.91,-0.21,0.03,27.76,21.0,-26.14,476

11286,-0.93,-0.11,-0.04,22.35,18.28,-31.74,476

11307,-0.96,-0.18,-0.03,10.82,12.83,-38.01,476

11326,-0.92,-0.26,-0.01,6.52,11.59,-40.93,475

11346,-0.88,-0.32,-0.02,8.37,13.35,-32.55,475

11366,-0.88,-0.3,0.01,12.05,14.48,-46.92,475

11386,-0.9,-0.29,0.01,13.3,13.76,-45.26,476

11406,-0.87,-0.33,-0.02,11.56,13.35,-51.79,476

11426,-0.87,-0.31,-0.06,10.82,12.25,-40.3,476

11446,-0.91,-0.32,-0.03,10.99,10.66,-48.01,476

11466,-0.9,-0.33,-0.05,10.17,12.02,-50.67,477

11486,-0.87,-0.39,-0.06,9.33,13.47,-60.75,477

11506,-0.86,-0.44,-0.02,17.39,18.33,-63.15,478

11526,-0.91,-0.44,0.03,27.48,21.33,-63.45,479

11546,-0.95,-0.41,0.07,30.52,18.48,-66.74,480

11567,-0.95,-0.41,0.06,28.27,16.19,-70.92,481

11586,-0.93,-0.45,0.01,20.18,13.46,-71.99,482

11607,-0.91,-0.52,-0.03,30.03,17.32,-78.7,483

11626,-1.16,-0.44,-0.02,44.21,23.56,-86.43,484

11646,-1.33,-0.36,0.14,54.89,22.68,-99.93,487

11666,-1.25,-0.24,0.28,69.68,29.64,-113.01,490

11686,-1.36,-0.19,0.42,88.98,41.87,-121.94,492

11706,-1.35,-0.25,0.39,88.32,39.99,-132.48,494

11726,-1.02,-0.42,0.13,54.09,7.61,-111.23,491

11746,-0.45,-0.64,-0.11,-12.12,-31.58,-96.28,487

11766,-0.43,-0.72,-0.21,-34.34,-34.57,-69.77,484

11786,-0.57,-0.92,-0.39,-46.43,-38.33,-60.24,485

11806,-0.33,-1.09,-0.31,-28.49,-22.77,-63.65,486

11826,-0.31,-1.04,-0.09,47.48,14.72,-22.58,485

11846,-0.4,-0.8,0.11,86.47,13.17,44.97,485

11867,-0.4,-0.51,0.0,53.04,-16.3,90.66,483

11886,-0.49,-0.52,0.0,-3.47,-42.57,124.34,482

11907,-0.51,-0.68,0.04,-41.01,-54.5,141.31,480

11926,-0.39,-0.81,0.16,-40.98,-46.65,173.52,480

11947,-0.36,-0.97,0.15,-2.84,-34.39,189.67,481

11966,-0.45,-0.85,0.16,31.76,-14.53,203.75,482

11986,-0.61,-0.55,0.17,8.18,-24.21,214.91,482

12006,-0.69,-0.36,0.18,-32.75,-37.14,233.85,483

12026,-0.74,-0.59,0.13,-48.18,-38.45,236.58,483

12046,-0.79,-0.69,0.13,-31.07,-34.99,217.77,481

12066,-0.82,-0.45,0.17,-19.65,-31.58,214.39,480

12086,-0.9,-0.27,0.17,-24.37,-28.12,211.74,479

12106,-0.98,-0.35,0.18,-29.66,-21.8,172.81,478

12126,-0.95,-0.34,0.17,-17.68,-16.79,151.9,477

12146,-0.9,-0.23,0.04,5.02,-4.01,127.59,476

12166,-1.02,-0.08,0.11,14.49,10.19,85.08,476

12186,-1.04,0.17,0.14,-6.85,-2.19,52.88,476

12207,-1.02,0.14,0.06,-37.07,-11.54,14.1,475

12226,-1.04,-0.01,0.08,-57.28,-13.05,-19.54,475

12247,-0.94,-0.15,0.07,-76.53,-25.11,-55.04,476

12266,-0.73,-0.52,0.01,-68.95,-16.12,-78.06,476

12286,-0.64,-0.85,0.04,-32.4,5.27,-84.02,477

12306,-0.95,-0.54,0.14,44.09,57.24,-61.36,477

12326,-1.54,0.13,0.53,62.38,32.71,2.23,479

12346,-1.06,0.3,0.15,4.12,3.41,-38.44,480

12366,-0.81,0.06,0.06,-70.11,-6.97,-58.31,479

12386,-0.91,-0.28,0.17,-106.41,-16.62,-31.55,479

12406,-0.79,-0.8,0.03,-41.57,19.55,-28.87,479

12426,-0.87,-0.47,0.11,15.62,38.59,-43.81,479

12446,-0.95,-0.1,0.22,2.14,27.85,-34.63,478

12466,-0.89,-0.18,0.1,-9.76,21.01,-30.83,477

12486,-0.83,-0.28,0.08,2.6,32.37,-34.99,477

12507,-0.94,-0.24,0.1,8.85,31.12,-36.88,478

12526,-0.96,-0.26,0.1,2.46,26.59,-23.64,478

12547,-0.88,-0.32,0.01,3.1,25.17,-42.87,478

12566,-0.92,-0.28,-0.08,10.03,26.54,-32.4,478

12587,-0.93,-0.27,-0.09,6.6,23.69,-33.21,478

12606,-0.91,-0.32,-0.0,8.58,24.16,-25.07,477

12626,-0.94,-0.23,0.01,13.22,23.04,-29.69,477

12646,-0.94,-0.2,0.0,9.79,19.62,-31.66,478

12666,-0.93,-0.22,-0.04,8.43,17.67,-38.08,478

12686,-0.94,-0.21,-0.05,14.87,20.05,-32.71,477

12706,-0.96,-0.17,-0.04,5.02,13.36,-31.78,477

12726,-0.86,-0.29,0.02,-7.13,10.97,-25.72,477

12746,-0.89,-0.38,0.06,-6.44,9.64,-33.2,477

12766,-0.9,-0.33,0.01,-2.7,10.86,-25.57,477

12786,-0.89,-0.3,-0.01,1.16,12.3,-35.28,477

12806,-0.9,-0.24,-0.01,2.72,10.95,-40.58,477

12826,-0.9,-0.23,-0.03,0.44,9.73,-28.15,478

12847,-0.87,-0.28,-0.01,0.85,11.03,-30.27,477

12866,-0.87,-0.32,0.03,5.73,11.21,-39.71,477

12887,-0.87,-0.34,0.03,8.14,10.05,-47.4,478

12906,-0.88,-0.34,-0.02,3.5,6.11,-53.18,477

12926,-0.87,-0.41,-0.05,-2.26,3.76,-43.23,477

12946,-0.85,-0.54,-0.02,2.99,7.03,-53.01,477

12966,-0.86,-0.48,-0.04,10.82,10.28,-51.92,478

12986,-0.87,-0.41,-0.05,9.01,10.05,-41.42,478

13006,-0.91,-0.47,-0.03,6.49,9.46,-41.18,478

13026,-0.94,-0.49,-0.02,15.08,10.97,-55.81,479

13046,-0.96,-0.32,0.0,24.11,13.41,-65.13,480

13066,-0.97,-0.28,0.05,27.02,13.01,-70.95,481

13086,-1.02,-0.32,0.02,32.38,16.95,-79.05,482

13106,-1.17,-0.29,0.07,35.3,19.85,-87.31,483

13126,-1.2,-0.37,0.14,48.64,23.44,-102.92,485

13147,-1.21,-0.44,0.15,75.16,28.63,-114.52,488

13166,-1.3,-0.41,0.28,97.4,30.62,-132.6,490

13187,-1.19,-0.32,0.35,104.61,35.33,-131.89,491

13206,-1.15,-0.35,0.29,96.98,29.67,-119.93,491

13227,-0.96,-0.3,0.21,57.85,-0.53,-105.92,490

13246,-0.64,-0.5,-0.05,-8.73,-41.49,-85.54,487

13266,-0.65,-0.75,-0.15,-38.87,-20.19,-84.95,486

13286,-0.58,-0.98,-0.34,-53.15,-33.72,-68.92,486

13306,-0.13,-1.18,-0.22,-9.44,1.07,-52.5,484

13326,-0.22,-1.14,0.03,76.96,30.17,-4.29,484

13346,-0.39,-0.64,0.09,88.89,10.42,69.3,484

13366,-0.33,-0.36,0.04,20.37,-13.49,108.68,482

13386,-0.38,-0.58,-0.04,-38.23,-52.68,132.2,481

13406,-0.35,-0.78,-0.02,-46.05,-48.6,157.78,481

13426,-0.3,-0.91,0.16,-20.14,-34.31,179.38,481

13446,-0.36,-0.9,0.11,26.73,-21.96,201.44,481

13466,-0.52,-0.64,0.17,40.23,-7.96,210.0,482

13487,-0.66,-0.42,0.23,-13.83,-25.76,235.61,482

13506,-0.63,-0.57,0.14,-51.76,-39.52,239.55,483

13527,-0.71,-0.77,0.1,-42.75,-25.52,239.57,482

13546,-0.88,-0.67,0.13,-24.56,-25.06,230.09,481

13566,-0.95,-0.36,0.22,-23.89,-23.9,235.22,479

13586,-1.02,-0.21,0.21,-34.81,-21.7,220.9,478

13606,-1.04,-0.36,0.19,-33.5,-21.34,182.72,477

13626,-0.95,-0.32,0.09,-8.55,-8.35,147.69,477

13646,-0.94,-0.1,0.03,17.88,1.91,108.51,477

13666,-1.01,0.08,0.11,18.35,9.69,80.52,477

13686,-0.96,0.2,0.09,7.63,5.58,30.95,477

13706,-0.94,0.05,0.03,-2.9,6.3,-12.3,477

13726,-0.93,0.01,0.14,-20.87,4.27,-42.32,477

13746,-0.89,-0.05,0.08,-51.6,-6.09,-59.06,477

13766,-0.8,-0.32,0.03,-75.89,-13.09,-87.02,477

13787,-0.8,-0.64,0.16,-69.48,-2.96,-92.13,477

13806,-1.57,-0.22,0.83,10.11,76.6,-4.75,477

13827,-1.11,0.32,0.23,-33.27,-18.25,-13.32,479

13846,-0.89,-0.05,-0.04,-56.63,-17.58,-85.67,479

13867,-0.81,-0.34,0.26,-92.61,-11.49,-56.76,479

13886,-0.66,-0.41,-0.03,-80.09,-3.96,-15.01,479

13906,-0.92,-0.48,-0.02,-17.85,29.7,-38.9,478

13926,-0.83,-0.34,0.19,-1.01,34.51,-36.79,478

13946,-0.97,-0.25,0.24,4.75,32.92,-42.68,479

13966,-0.94,-0.12,0.12,-10.27,17.41,-33.32,478

13986,-0.79,-0.2,0.02,-14.53,22.57,-35.58,477

14006,-0.92,-0.34,0.03,2.09,30.85,-41.25,477

14026,-0.98,-0.2,0.02,12.75,30.63,-53.2,477

14046,-0.97,-0.16,-0.03,2.08,26.27,-42.68,478

14066,-0.9,-0.23,-0.08,-20.61,15.18,-31.67,477

14086,-0.84,-0.54,-0.0,-24.43,15.11,-30.69,477

14106,-0.88,-0.63,0.05,-7.34,15.23,-27.89,477

14127,-0.82,-0.5,0.03,7.1,20.69,-32.7,477

14146,-0.89,-0.43,0.01,16.18,24.25,-21.71,478

14167,-0.95,-0.29,0.01,16.21,19.73,-16.04,478

14186,-0.9,-0.23,0.01,7.63,16.05,-15.57,478

14206,-0.95,-0.23,0.01,3.98,14.13,-26.32,477

14226,-0.92,-0.2,-0.0,4.78,12.34,-23.58,477

14246,-0.92,-0.14,-0.04,4.11,13.24,-29.19,478

14266,-0.96,-0.16,-0.04,-4.21,9.12,-21.67,477

14286,-0.92,-0.28,0.01,-11.73,4.8,-27.33,477

14306,-0.87,-0.36,0.02,-5.86,7.43,-29.84,477

14326,-0.86,-0.37,-0.01,4.87,10.91,-24.43,477

14346,-0.87,-0.35,-0.01,4.6,10.51,-37.27,477

14366,-0.89,-0.39,0.0,0.89,6.75,-30.92,476

14386,-0.9,-0.41,0.02,3.68,4.86,-43.77,476

14406,-0.85,-0.43,0.01,14.09,9.79,-28.67,476

14427,-0.85,-0.34,-0.03,13.92,10.16,-37.29,477

14446,-0.89,-0.34,-0.03,4.03,6.91,-37.53,476

14467,-0.88,-0.46,-0.01,6.5,6.97,-43.65,477

14486,-0.87,-0.4,-0.04,13.28,9.67,-39.91,477

14507,-0.89,-0.34,-0.02,11.1,10.17,-49.81,477

14526,-0.91,-0.38,0.01,14.02,12.54,-49.38,478

14546,-0.91,-0.31,-0.01,22.84,15.84,-50.98,478

14566,-0.91,-0.23,-0.05,27.62,22.17,-58.46,479

14586,-1.16,-0.07,-0.07,28.82,30.28,-74.86,480

14606,-1.35,-0.11,0.16,27.13,27.65,-95.14,482

14626,-1.19,-0.31,0.19,59.59,35.21,-126.9,486

14646,-1.33,-0.6,0.36,97.88,41.04,-152.43,489

14666,-1.48,-0.37,0.22,126.58,57.81,-139.86,492

14686,-1.34,-0.32,0.16,107.01,43.44,-134.24,491

14706,-0.89,-0.5,0.16,70.49,33.59,-122.76,490

14726,-0.48,-0.71,0.14,30.73,2.48,-101.68,488

14746,-0.22,-0.74,-0.35,-15.24,5.09,-74.67,484

14767,-0.23,-0.93,-0.3,-24.55,6.8,-62.47,482

14786,-0.31,-1.1,0.09,36.44,28.65,-6.37,483

14807,-0.37,-1.07,0.06,80.95,19.5,39.87,483

14826,-0.45,-0.6,0.05,72.67,10.49,68.46,482

14846,-0.46,-0.28,0.06,-7.01,-26.51,107.4,481

14866,-0.44,-0.45,0.03,-86.18,-56.45,148.67,480

14886,-0.45,-0.89,0.03,-97.54,-61.92,176.59,480

14906,-0.42,-1.03,0.07,-45.51,-45.44,183.67,481

14926,-0.53,-0.86,0.13,-6.63,-34.88,202.73,482

14946,-0.66,-0.57,0.17,-21.16,-47.63,217.18,482

14966,-0.71,-0.51,0.13,-53.57,-58.27,219.37,483

14986,-0.83,-0.56,0.11,-68.93,-61.99,216.49,482

15006,-0.9,-0.58,0.14,-67.89,-64.04,205.67,480

15026,-0.93,-0.47,0.14,-70.14,-65.2,194.22,479

15046,-0.99,-0.34,0.22,-75.74,-55.35,174.27,477

15067,-0.92,-0.32,0.2,-72.35,-53.28,144.58,477

15086,-0.74,-0.46,-0.02,-44.64,-35.15,106.66,476

15107,-0.84,-0.4,-0.07,-2.43,-1.22,73.63,476

15126,-0.97,-0.12,0.05,-3.19,0.65,22.1,476

15147,-0.82,-0.13,-0.04,-27.79,-6.19,-1.39,476

15166,-0.7,-0.27,-0.0,-32.32,-1.52,-29.88,475

15186,-0.66,-0.43,-0.05,-35.94,0.01,-69.37,474

15206,-0.86,-0.32,0.32,-16.7,35.29,-54.63,474

15226,-2.0,0.06,1.02,2.9,41.17,35.57,476

15246,-0.91,0.15,0.31,-45.83,-28.35,-36.59,477

15266,-0.67,-0.17,0.06,-84.34,-22.5,-63.67,475

15286,-0.73,-0.51,-0.09,-90.66,-6.41,-10.5,475

15306,-1.0,-0.78,-0.31,-11.97,34.66,-21.21,475

15326,-0.86,-0.38,0.0,15.24,39.27,-21.8,475

15346,-0.95,-0.17,0.22,-2.9,29.93,-20.19,475

15366,-0.96,-0.25,0.18,-24.84,6.97,-22.48,475

15386,-0.82,-0.45,-0.07,-17.85,10.24,-15.72,475

15407,-0.99,-0.43,-0.17,10.93,20.92,-8.41,475

15426,-0.96,-0.27,-0.11,9.5,16.68,-2.89,475

15447,-0.9,-0.27,0.16,-5.74,11.15,-5.62,476

15466,-0.91,-0.35,0.2,-7.02,3.73,3.55,476

15486,-0.88,-0.3,0.02,1.4,6.22,-2.74,476

15506,-0.9,-0.25,-0.01,7.33,12.11,-1.6,476

15526,-0.98,-0.19,0.08,12.43,12.33,3.93,476

15546,-0.96,-0.1,0.08,6.35,8.22,-4.99,477

15566,-0.93,-0.14,0.06,0.29,6.83,0.79,477

15586,-0.95,-0.2,0.02,0.24,5.49,-9.21,477

15606,-0.94,-0.22,0.01,2.05,8.14,-18.9,476

15626,-0.99,-0.23,-0.07,-2.89,1.01,-9.44,476

15646,-0.97,-0.23,-0.08,-5.79,-1.15,-3.1,476

15666,-0.87,-0.28,0.02,9.37,5.24,-13.44,476

15686,-0.94,-0.23,0.14,28.15,10.54,-9.47,476

15707,-0.93,-0.09,0.09,19.95,6.16,-11.98,476

15726,-0.91,-0.13,0.03,3.53,3.12,-12.95,476

15747,-0.93,-0.23,0.04,-2.31,2.22,-6.17,476

15766,-0.91,-0.29,0.07,2.05,3.35,-7.85,476

15787,-0.93,-0.27,0.08,6.79,4.22,-12.13,476

15806,-0.92,-0.24,0.07,7.34,3.64,-0.61,476

15826,-0.92,-0.16,0.06,3.5,1.62,-8.51,476

15846,-0.96,-0.15,0.04,-8.12,-1.87,-9.52,476

15866,-0.91,-0.28,0.03,-11.82,-2.12,-8.48,476

15886,-0.88,-0.36,0.07,-4.37,1.27,-5.44,476

15906,-0.9,-0.32,0.08,3.39,3.62,-4.79,476

15926,-0.91,-0.27,0.08,4.61,4.17,-8.61,476

15946,-0.92,-0.25,0.04,0.52,2.07,-6.53,476

15966,-0.92,-0.25,0.01,-3.36,0.98,-12.91,476

15986,-0.92,-0.29,0.02,-3.19,1.81,-6.67,476

16006,-0.9,-0.32,0.07,2.32,3.7,-5.95,476

16026,-0.9,-0.29,0.08,4.53,4.05,-4.15,476

16047,-0.93,-0.26,0.04,1.76,1.3,-2.59,476

16066,-0.91,-0.25,-0.0,-0.47,1.78,3.62,476

16087,-0.91,-0.26,-0.01,-2.81,1.5,-2.55,476

16106,-0.91,-0.31,0.04,-0.81,2.34,-2.27,476

16126,-0.9,-0.29,0.06,1.97,2.33,-4.5,476

16146,-0.94,-0.23,0.03,-0.53,1.79,-0.56,476

16166,-0.92,-0.26,0.04,-4.87,0.6,1.47,476

16186,-0.9,-0.3,0.05,-4.11,0.83,-6.29,476

16206,-0.91,-0.29,0.02,-0.84,1.91,-7.12,476

